* Measurement data measured by REW V5.31.3
* Source: Микрофон (2- CX31993 384Khz HIFI AUDIO), MICROPHONE (Общая громкость), L, volume: 0,250
* Format: 256k Log Swept Sine, 1 sweep at -20,0 dBFS with no timing reference
* Dated: 19.12.2024 17:58:04
* REW Settings:
*  C-weighting compensation: Off
*  Target level: 75.0 dB
* Note: 
* Measurement: CKLVX D62
* Smoothing: 1/12 octave
* Frequency Step: 96 ppo
* Start Frequency: 20.141602 Hz
*
* Freq(Hz) SPL(dB) Phase(degrees)
20.141602 77.259 -173.2304
20.287556 77.257 -173.3646
20.434568 77.253 -173.5632
20.582645 77.249 -173.8084
20.731796 77.243 -174.0848
20.882027 77.237 -174.3812
21.033346 77.230 -174.6903
21.185763 77.222 -175.0074
21.339284 77.215 -175.3298
21.493917 77.207 -175.6555
21.649671 77.199 -175.9832
21.806553 77.192 -176.3117
21.964572 77.184 -176.6398
22.123737 77.177 -176.9664
22.284054 77.169 -177.2900
22.445534 77.161 -177.6095
22.608183 77.153 -177.9232
22.772012 77.145 -178.2296
22.937027 77.136 -178.5268
23.103238 77.127 -178.8129
23.270654 77.117 -179.0856
23.439282 77.107 -179.3430
23.609133 77.097 -179.5833
23.780215 77.087 -179.8056
23.952536 77.078 179.9900
24.126106 77.070 179.8016
24.300934 77.064 179.6256
24.477028 77.060 179.4566
24.654399 77.058 179.2873
24.833055 77.058 179.1094
25.013005 77.061 178.9145
25.194260 77.064 178.6948
25.376828 77.066 178.4446
25.560719 77.066 178.1607
25.745942 77.063 177.8436
25.932508 77.056 177.4971
26.120426 77.043 177.1279
26.309705 77.024 176.7449
26.500356 77.000 176.3579
26.692388 76.972 175.9761
26.885812 76.941 175.6070
27.080638 76.909 175.2549
27.276876 76.879 174.9210
27.474535 76.851 174.6031
27.673627 76.828 174.2967
27.874161 76.808 173.9960
28.076149 76.793 173.6955
28.279600 76.782 173.3914
28.484526 76.772 173.0824
28.690937 76.763 172.7696
28.898843 76.754 172.4564
29.108256 76.744 172.1470
29.319186 76.733 171.8455
29.531645 76.720 171.5546
29.745644 76.706 171.2753
29.961193 76.692 171.0057
30.178304 76.677 170.7429
30.396989 76.663 170.4824
30.617258 76.649 170.2204
30.839123 76.635 169.9542
31.062596 76.621 169.6828
31.287688 76.607 169.4073
31.514412 76.591 169.1306
31.742778 76.576 168.8558
31.972800 76.559 168.5865
32.204488 76.543 168.3248
32.437855 76.527 168.0710
32.672913 76.511 167.8237
32.909674 76.495 167.5797
33.148151 76.480 167.3347
33.388356 76.465 167.0848
33.630302 76.449 166.8270
33.874001 76.431 166.5604
34.119466 76.412 166.2868
34.366710 76.392 166.0096
34.615745 76.370 165.7334
34.866585 76.348 165.4620
35.119243 76.326 165.1973
35.373731 76.306 164.9385
35.630064 76.287 164.6826
35.888254 76.271 164.4258
36.148315 76.256 164.1656
36.410261 76.240 163.9033
36.674104 76.223 163.6436
36.939860 76.204 163.3943
37.207542 76.184 163.1625
37.477163 76.164 162.9515
37.748738 76.145 162.7578
38.022281 76.129 162.5718
38.297806 76.116 162.3810
38.575327 76.103 162.1755
38.854860 76.090 161.9534
39.136419 76.073 161.7223
39.420017 76.053 161.4967
39.705671 76.030 161.2913
39.993395 76.007 161.1119
40.283203 75.987 160.9514
40.575112 75.973 160.7894
40.869136 75.963 160.6011
41.165290 75.954 160.3691
41.463591 75.941 160.0931
41.764053 75.921 159.7925
42.066693 75.890 159.4992
42.371525 75.853 159.2431
42.678567 75.815 159.0375
42.987834 75.781 158.8698
43.299341 75.757 158.7054
43.613106 75.742 158.5020
43.929145 75.733 158.2298
44.247473 75.723 157.8854
44.568109 75.707 157.4942
44.891068 75.682 157.0995
45.216367 75.651 156.7435
45.544023 75.618 156.4515
45.874054 75.586 156.2240
46.206476 75.557 156.0403
46.541307 75.531 155.8726
46.878565 75.504 155.6996
47.218266 75.471 155.5152
47.560429 75.433 155.3265
47.905072 75.390 155.1439
48.252212 75.347 154.9712
48.601867 75.308 154.7999
48.954056 75.276 154.6119
49.308798 75.253 154.3887
49.666109 75.237 154.1213
50.026010 75.225 153.8153
50.388520 75.215 153.4902
50.753656 75.205 153.1721
51.121437 75.196 152.8839
51.491884 75.188 152.6375
51.865016 75.181 152.4302
52.240851 75.174 152.2473
52.619410 75.164 152.0684
53.000712 75.145 151.8762
53.384777 75.115 151.6627
53.771625 75.071 151.4305
54.161276 75.016 151.1886
54.553751 74.957 150.9458
54.949070 74.901 150.7045
55.347254 74.857 150.4603
55.748323 74.830 150.2065
56.152298 74.821 149.9416
56.559201 74.826 149.6738
56.969052 74.838 149.4200
57.381873 74.848 149.2011
57.797686 74.849 149.0355
58.216512 74.837 148.9334
58.638373 74.810 148.8915
59.063291 74.771 148.8857
59.491288 74.726 148.8701
59.922386 74.678 148.7854
60.356608 74.631 148.5810
60.793977 74.583 148.2415
61.234515 74.534 147.8002
61.678246 74.484 147.3303
62.125192 74.439 146.9145
62.575377 74.403 146.6101
63.028824 74.380 146.4290
63.485557 74.368 146.3404
63.945599 74.361 146.2914
64.408975 74.353 146.2303
64.875709 74.338 146.1196
65.345825 74.317 145.9400
65.819348 74.290 145.6907
66.296302 74.261 145.3895
66.776713 74.230 145.0706
67.260604 74.198 144.7737
67.748002 74.165 144.5281
68.238932 74.133 144.3385
68.733420 74.100 144.1836
69.231490 74.068 144.0303
69.733170 74.034 143.8542
70.238485 74.000 143.6512
70.747463 73.966 143.4328
71.260128 73.935 143.2117
71.776508 73.908 142.9896
72.296630 73.886 142.7571
72.820521 73.866 142.5044
73.348209 73.846 142.2305
73.879720 73.826 141.9447
74.415083 73.806 141.6587
74.954326 73.787 141.3781
75.497475 73.771 141.1016
76.044561 73.755 140.8282
76.595612 73.738 140.5645
77.150655 73.717 140.3242
77.709720 73.694 140.1209
78.272837 73.668 139.9586
78.840034 73.640 139.8289
79.411342 73.611 139.7160
79.986789 73.581 139.6018
80.566406 73.551 139.4715
81.150224 73.520 139.3167
81.738272 73.487 139.1368
82.330581 73.452 138.9400
82.927182 73.416 138.7394
83.528107 73.380 138.5481
84.133386 73.345 138.3729
84.743051 73.312 138.2114
85.357134 73.282 138.0535
85.975667 73.252 137.8865
86.598682 73.222 137.7043
87.226212 73.189 137.5114
87.858289 73.153 137.3206
88.494946 73.114 137.1435
89.136217 73.077 136.9804
89.782135 73.042 136.8192
90.432733 73.011 136.6431
91.088046 72.981 136.4419
91.748108 72.952 136.2177
92.412952 72.922 135.9818
93.082615 72.890 135.7470
93.757130 72.857 135.5220
94.436533 72.824 135.3107
95.120859 72.791 135.1134
95.810144 72.758 134.9288
96.504423 72.726 134.7536
97.203734 72.695 134.5826
97.908112 72.665 134.4095
98.617595 72.634 134.2292
99.332219 72.604 134.0402
100.052021 72.572 133.8439
100.777039 72.540 133.6447
101.507311 72.506 133.4473
102.242875 72.471 133.2549
102.983769 72.436 133.0685
103.730032 72.400 132.8875
104.481702 72.366 132.7109
105.238820 72.332 132.5368
106.001424 72.299 132.3629
106.769554 72.266 132.1866
107.543250 72.232 132.0064
108.322553 72.197 131.8228
109.107503 72.163 131.6375
109.898141 72.129 131.4515
110.694508 72.095 131.2644
111.496646 72.062 131.0750
112.304596 72.028 130.8832
113.118402 71.994 130.6907
113.938104 71.960 130.5002
114.763747 71.925 130.3137
115.595372 71.889 130.1318
116.433024 71.854 129.9547
117.276746 71.819 129.7823
118.126581 71.784 129.6125
118.982575 71.749 129.4427
119.844772 71.714 129.2715
120.713217 71.679 129.0995
121.587954 71.645 128.9285
122.469031 71.611 128.7593
123.356492 71.578 128.5912
124.250384 71.544 128.4230
125.150753 71.509 128.2543
126.057647 71.475 128.0848
126.971113 71.440 127.9135
127.891198 71.406 127.7404
128.817950 71.373 127.5658
129.751418 71.340 127.3893
130.691651 71.308 127.2108
131.638696 71.276 127.0320
132.592604 71.244 126.8560
133.553425 71.211 126.6859
134.521208 71.176 126.5232
135.496004 71.141 126.3661
136.477864 71.106 126.2099
137.466839 71.070 126.0504
138.462981 71.035 125.8854
139.466340 71.000 125.7151
140.476971 70.964 125.5414
141.494925 70.929 125.3667
142.520256 70.893 125.1934
143.553016 70.857 125.0228
144.593260 70.821 124.8554
145.641043 70.786 124.6908
146.696418 70.750 124.5278
147.759441 70.715 124.3656
148.830166 70.679 124.2043
149.908651 70.643 124.0449
150.994951 70.608 123.8883
152.089123 70.573 123.7337
153.191223 70.537 123.5792
154.301310 70.502 123.4232
155.419441 70.467 123.2657
156.545674 70.431 123.1078
157.680069 70.395 122.9505
158.822683 70.359 122.7950
159.973578 70.323 122.6419
161.132813 70.286 122.4920
162.300447 70.250 122.3453
163.476543 70.213 122.2018
164.661162 70.175 122.0617
165.854364 70.138 121.9259
167.056213 70.100 121.7947
168.266772 70.063 121.6679
169.486102 70.026 121.5453
170.714268 69.988 121.4277
171.951334 69.951 121.3162
173.197364 69.914 121.2123
174.452424 69.877 121.1178
175.716578 69.841 121.0333
176.989893 69.806 120.9581
178.272434 69.773 120.8916
179.564270 69.742 120.8340
180.865467 69.712 120.7853
182.176092 69.685 120.7445
183.496216 69.661 120.7085
184.825905 69.640 120.6730
186.165229 69.622 120.6335
187.514259 69.607 120.5865
188.873065 69.595 120.5283
190.241717 69.586 120.4544
191.620287 69.579 120.3602
193.008847 69.573 120.2412
194.407468 69.568 120.0947
195.816225 69.563 119.9196
197.235190 69.557 119.7172
198.664438 69.549 119.4913
200.104042 69.539 119.2465
201.554078 69.526 118.9887
203.014622 69.511 118.7251
204.485750 69.493 118.4618
205.967538 69.474 118.2019
207.460064 69.451 117.9451
208.963405 69.427 117.6910
210.477640 69.401 117.4406
212.002848 69.374 117.1949
213.539108 69.345 116.9542
215.086500 69.317 116.7193
216.645105 69.287 116.4902
218.215005 69.258 116.2667
219.796281 69.228 116.0479
221.389015 69.198 115.8327
222.993292 69.168 115.6200
224.609193 69.138 115.4088
226.236804 69.108 115.1986
227.876209 69.078 114.9886
229.527494 69.049 114.7791
231.190745 69.019 114.5717
232.866048 68.991 114.3690
234.553491 68.962 114.1730
236.253163 68.934 113.9829
237.965150 68.907 113.7958
239.689544 68.879 113.6088
241.426433 68.852 113.4205
243.175909 68.825 113.2303
244.938062 68.798 113.0387
246.712984 68.771 112.8472
248.500768 68.745 112.6583
250.301507 68.719 112.4740
252.115295 68.692 112.2943
253.942226 68.666 112.1174
255.782396 68.639 111.9410
257.635901 68.612 111.7633
259.502837 68.586 111.5828
261.383301 68.559 111.3997
263.277392 68.533 111.2148
265.185209 68.508 111.0292
267.106850 68.482 110.8444
269.042417 68.457 110.6609
270.992009 68.433 110.4789
272.955729 68.409 110.2981
274.933678 68.385 110.1180
276.925961 68.361 109.9384
278.932681 68.339 109.7594
280.953942 68.316 109.5813
282.989850 68.294 109.4044
285.040511 68.272 109.2287
287.106032 68.251 109.0537
289.186521 68.230 108.8780
291.282086 68.209 108.7000
293.392836 68.187 108.5192
295.518881 68.166 108.3357
297.660333 68.146 108.1501
299.817302 68.125 107.9627
301.989902 68.104 107.7729
304.178245 68.084 107.5800
306.382446 68.063 107.3837
308.602620 68.044 107.1865
310.838882 68.025 106.9928
313.091348 68.007 106.8052
315.360137 67.989 106.6217
317.645367 67.973 106.4380
319.947156 67.956 106.2514
322.265625 67.940 106.0609
324.600895 67.924 105.8670
326.953086 67.907 105.6703
329.322323 67.891 105.4713
331.708729 67.875 105.2708
334.112427 67.858 105.0695
336.533543 67.841 104.8672
338.972204 67.824 104.6634
341.428536 67.807 104.4586
343.902668 67.790 104.2534
346.394729 67.773 104.0469
348.904848 67.756 103.8379
351.433156 67.738 103.6251
353.979786 67.721 103.4084
356.544869 67.704 103.1894
359.128540 67.686 102.9699
361.730934 67.669 102.7521
364.352185 67.651 102.5376
366.992431 67.633 102.3281
369.651810 67.616 102.1249
372.330459 67.599 101.9283
375.028519 67.584 101.7377
377.746130 67.569 101.5515
380.483434 67.556 101.3676
383.240574 67.542 101.1840
386.017693 67.529 100.9993
388.814937 67.517 100.8120
391.632450 67.505 100.6206
394.470380 67.494 100.4234
397.328875 67.484 100.2188
400.208084 67.475 100.0061
403.108157 67.466 99.7857
406.029245 67.458 99.5590
408.971500 67.449 99.3275
411.935076 67.440 99.0927
414.920127 67.431 98.8554
417.926810 67.420 98.6167
420.955280 67.410 98.3771
424.005695 67.398 98.1367
427.078215 67.387 97.8956
430.173000 67.375 97.6548
433.290211 67.362 97.4156
436.430010 67.350 97.1784
439.592562 67.337 96.9435
442.778031 67.324 96.7106
445.986583 67.310 96.4793
449.218386 67.297 96.2494
452.473607 67.284 96.0215
455.752418 67.270 95.7962
459.054987 67.257 95.5734
462.381489 67.243 95.3528
465.732096 67.230 95.1337
469.106983 67.217 94.9157
472.506325 67.204 94.6992
475.930301 67.191 94.4848
479.379088 67.178 94.2726
482.852867 67.165 94.0628
486.351817 67.153 93.8548
489.876123 67.140 93.6477
493.425968 67.128 93.4413
497.001536 67.115 93.2359
500.603014 67.103 93.0318
504.230589 67.090 92.8289
507.884452 67.077 92.6269
511.564792 67.065 92.4259
515.271802 67.053 92.2263
519.005673 67.041 92.0282
522.766602 67.030 91.8319
526.554785 67.019 91.6377
530.370418 67.008 91.4460
534.213700 66.997 91.2572
538.084833 66.986 91.0716
541.984018 66.974 90.8893
545.911457 66.963 90.7102
549.867357 66.952 90.5338
553.851922 66.941 90.3594
557.865362 66.931 90.1878
561.907884 66.920 90.0199
565.979700 66.909 89.8565
570.081022 66.899 89.6978
574.212064 66.888 89.5430
578.373042 66.878 89.3913
582.564171 66.869 89.2425
586.785671 66.859 89.0960
591.037762 66.850 88.9508
595.320665 66.841 88.8066
599.634604 66.832 88.6640
603.979804 66.824 88.5245
608.356491 66.815 88.3891
612.764893 66.807 88.2579
617.205240 66.798 88.1302
621.677763 66.791 88.0060
626.182696 66.783 87.8862
630.720274 66.776 87.7720
635.290733 66.769 87.6642
639.894312 66.762 87.5624
644.531250 66.756 87.4659
649.201789 66.750 87.3739
653.906173 66.744 87.2866
658.644647 66.739 87.2054
663.417457 66.734 87.1321
668.224854 66.730 87.0681
673.067086 66.726 87.0143
677.944408 66.723 86.9703
682.857073 66.720 86.9346
687.805336 66.719 86.9057
692.789457 66.718 86.8827
697.809695 66.719 86.8654
702.866312 66.720 86.8542
707.959571 66.724 86.8495
713.089738 66.729 86.8517
718.257080 66.735 86.8607
723.461867 66.744 86.8754
728.704370 66.755 86.8942
733.984862 66.767 86.9161
739.303619 66.782 86.9406
744.660918 66.799 86.9674
750.057038 66.817 86.9966
755.492260 66.838 87.0274
760.966869 66.860 87.0582
766.481148 66.884 87.0863
772.035387 66.909 87.1096
777.629873 66.936 87.1267
783.264900 66.965 87.1379
788.940760 66.995 87.1439
794.657750 67.026 87.1445
800.416168 67.058 87.1394
806.216313 67.091 87.1283
812.058489 67.125 87.1120
817.943000 67.160 87.0911
823.870152 67.196 87.0660
829.840255 67.232 87.0371
835.853619 67.269 87.0054
841.910559 67.306 86.9716
848.011390 67.344 86.9357
854.156430 67.383 86.8979
860.346000 67.421 86.8587
866.580422 67.461 86.8185
872.860020 67.501 86.7779
879.185124 67.542 86.7368
885.556062 67.584 86.6946
891.973166 67.627 86.6509
898.436771 67.670 86.6056
904.947215 67.714 86.5593
911.504835 67.758 86.5125
918.109975 67.804 86.4650
924.762978 67.851 86.4170
931.464192 67.898 86.3682
938.213966 67.948 86.3189
945.012651 67.998 86.2692
951.860602 68.050 86.2184
958.758176 68.103 86.1659
965.705733 68.157 86.1102
972.703635 68.212 86.0503
979.752246 68.268 85.9851
986.851935 68.325 85.9135
994.003071 68.383 85.8347
1001.206027 68.443 85.7485
1008.461179 68.503 85.6547
1015.768904 68.565 85.5532
1023.129584 68.628 85.4443
1030.543603 68.691 85.3282
1038.011347 68.756 85.2044
1045.533205 68.821 85.0728
1053.109569 68.886 84.9332
1060.740836 68.952 84.7854
1068.427401 69.019 84.6292
1076.169666 69.086 84.4640
1083.968035 69.154 84.2898
1091.822915 69.223 84.1063
1099.734713 69.291 83.9130
1107.703844 69.360 83.7097
1115.730723 69.429 83.4968
1123.815768 69.497 83.2746
1131.959400 69.565 83.0435
1140.162045 69.633 82.8039
1148.424129 69.700 82.5560
1156.746083 69.767 82.3007
1165.128342 69.833 82.0388
1173.571343 69.899 81.7709
1182.075524 69.964 81.4970
1190.641331 70.028 81.2171
1199.269209 70.092 80.9314
1207.959608 70.155 80.6406
1216.712981 70.216 80.3454
1225.529785 70.277 80.0464
1234.410479 70.338 79.7437
1243.355526 70.397 79.4375
1252.365393 70.456 79.1285
1261.440549 70.514 78.8174
1270.581467 70.571 78.5051
1279.788624 70.628 78.1920
1289.062500 70.683 77.8781
1298.403578 70.738 77.5636
1307.812346 70.792 77.2494
1317.289293 70.845 76.9360
1326.834914 70.897 76.6243
1336.449707 70.949 76.3147
1346.134173 71.000 76.0076
1355.888816 71.051 75.7034
1365.714145 71.102 75.4019
1375.610673 71.152 75.1034
1385.578915 71.203 74.8083
1395.619391 71.253 74.5170
1405.732624 71.303 74.2301
1415.919142 71.353 73.9476
1426.179476 71.403 73.6693
1436.514160 71.453 73.3943
1446.923734 71.503 73.1222
1457.408740 71.553 72.8531
1467.969724 71.603 72.5871
1478.607238 71.654 72.3241
1489.321836 71.704 72.0638
1500.114076 71.755 71.8068
1510.984521 71.807 71.5535
1521.933737 71.859 71.3044
1532.962297 71.912 71.0593
1544.070773 71.966 70.8177
1555.259747 72.020 70.5789
1566.529800 72.075 70.3424
1577.881521 72.131 70.1079
1589.315501 72.188 69.8749
1600.832336 72.246 69.6427
1612.432627 72.305 69.4111
1624.116978 72.364 69.1801
1635.886000 72.425 68.9496
1647.740304 72.487 68.7192
1659.680509 72.550 68.4886
1671.707238 72.615 68.2575
1683.821118 72.680 68.0258
1696.022780 72.747 67.7932
1708.312860 72.816 67.5593
1720.692000 72.885 67.3233
1733.160843 72.956 67.0845
1745.720041 73.029 66.8423
1758.370248 73.102 66.5957
1771.112124 73.177 66.3442
1783.946332 73.254 66.0875
1796.873543 73.332 65.8251
1809.894429 73.411 65.5568
1823.009670 73.493 65.2820
1836.219950 73.575 65.0002
1849.525956 73.659 64.7104
1862.928384 73.745 64.4117
1876.427931 73.832 64.1031
1890.025301 73.921 63.7835
1903.721204 74.011 63.4525
1917.516352 74.103 63.1095
1931.411466 74.196 62.7536
1945.407270 74.290 62.3838
1959.504493 74.386 61.9991
1973.703870 74.483 61.5986
1988.006142 74.581 61.1815
2002.412054 74.681 60.7471
2016.922357 74.781 60.2943
2031.537808 74.882 59.8219
2046.259169 74.984 59.3289
2061.087206 75.087 58.8143
2076.022694 75.190 58.2774
2091.066410 75.294 57.7173
2106.219139 75.398 57.1335
2121.481671 75.501 56.5252
2136.854802 75.605 55.8920
2152.339333 75.707 55.2330
2167.936071 75.810 54.5473
2183.645829 75.911 53.8343
2199.469427 76.011 53.0933
2215.407689 76.110 52.3239
2231.461446 76.206 51.5255
2247.631536 76.301 50.6980
2263.918800 76.394 49.8419
2280.324089 76.483 48.9576
2296.848258 76.570 48.0457
2313.492167 76.654 47.1068
2330.256685 76.733 46.1413
2347.142685 76.809 45.1498
2364.151049 76.881 44.1328
2381.282662 76.948 43.0918
2398.538418 77.010 42.0293
2415.919216 77.066 40.9486
2433.425962 77.116 39.8532
2451.059570 77.160 38.7455
2468.820958 77.197 37.6271
2486.711052 77.227 36.5000
2504.730786 77.251 35.3666
2522.881098 77.267 34.2300
2541.162934 77.277 33.0932
2559.577248 77.280 31.9593
2578.125000 77.277 30.8313
2596.807157 77.266 29.7125
2615.624692 77.249 28.6063
2634.578586 77.226 27.5160
2653.669829 77.197 26.4442
2672.899414 77.161 25.3933
2692.268345 77.120 24.3654
2711.777632 77.074 23.3624
2731.428290 77.023 22.3862
2751.221345 76.967 21.4390
2771.157829 76.907 20.5227
2791.238781 76.842 19.6397
2811.465248 76.774 18.7916
2831.838284 76.702 17.9792
2852.358952 76.628 17.2028
2873.028321 76.551 16.4626
2893.847468 76.473 15.7596
2914.817480 76.392 15.0945
2935.939449 76.311 14.4677
2957.214476 76.229 13.8796
2978.643672 76.147 13.3304
3000.228152 76.065 12.8198
3021.969041 75.983 12.3478
3043.867475 75.901 11.9146
3065.924593 75.821 11.5201
3088.141547 75.741 11.1648
3110.519493 75.663 10.8480
3133.059600 75.588 10.5693
3155.763041 75.514 10.3284
3178.631001 75.444 10.1252
3201.664672 75.376 9.9592
3224.865254 75.313 9.8290
3248.233957 75.254 9.7321
3271.771999 75.201 9.6648
3295.480608 75.153 9.6232
3319.361019 75.111 9.6031
3343.414477 75.076 9.5999
3367.642236 75.047 9.6087
3392.045560 75.025 9.6244
3416.625721 75.010 9.6420
3441.383999 75.001 9.6566
3466.321686 74.997 9.6646
3491.440082 75.000 9.6632
3516.740496 75.007 9.6508
3542.224247 75.019 9.6263
3567.892664 75.035 9.5889
3593.747085 75.056 9.5380
3619.788858 75.082 9.4726
3646.019340 75.112 9.3911
3672.439900 75.146 9.2915
3699.051913 75.186 9.1713
3725.856768 75.230 9.0272
3752.855862 75.279 8.8558
3780.050603 75.333 8.6527
3807.442408 75.391 8.4130
3835.032705 75.454 8.1318
3862.822933 75.519 7.8046
3890.814540 75.588 7.4271
3919.008986 75.660 6.9950
3947.407741 75.734 6.5040
3976.012284 75.808 5.9498
4004.824108 75.883 5.3282
4033.844715 75.957 4.6356
4063.075616 76.030 3.8693
