* Measurement data measured by REW V5.31.3
* Source: Микрофон (2- CX31993 384Khz HIFI AUDIO), MICROPHONE (Общая громкость), R, volume: 0,000
* Format: 256k Log Swept Sine, 1 sweep at -20,0 dBFS with no timing reference
* Dated: 10.01.2025 13:43:39
* REW Settings:
*  C-weighting compensation: Off
*  Target level: 75.0 dB
* Note: 
* Measurement: JF11 good measure
* Smoothing: 1/12 octave
* Frequency Step: 96 ppo
* Start Frequency: 20.141602 Hz
*
* Freq(Hz) SPL(dB) Phase(degrees)
20.141602 68.679 -77.3474
20.287556 68.623 -77.2417
20.434568 68.541 -77.0622
20.582645 68.448 -76.8050
20.731796 68.358 -76.4862
20.882027 68.286 -76.1478
21.033346 68.245 -75.8549
21.185763 68.241 -75.6859
21.339284 68.275 -75.7154
21.493917 68.342 -75.9959
21.649671 68.431 -76.5466
21.806553 68.529 -77.3474
21.964572 68.624 -78.3408
22.123737 68.706 -79.4410
22.284054 68.770 -80.5444
22.445534 68.815 -81.5423
22.608183 68.845 -82.3361
22.772012 68.872 -82.8510
22.937027 68.908 -83.0524
23.103238 68.966 -82.9573
23.270654 69.059 -82.6382
23.439282 69.191 -82.2156
23.609133 69.357 -81.8335
23.780215 69.544 -81.6288
23.952536 69.733 -81.7033
24.126106 69.900 -82.1059
24.300934 70.026 -82.8306
24.477028 70.092 -83.8212
24.654399 70.087 -84.9821
24.833055 70.009 -86.1898
25.013005 69.864 -87.3037
25.194260 69.669 -88.1829
25.376828 69.454 -88.7090
25.560719 69.260 -88.8204
25.745942 69.136 -88.5496
25.932508 69.123 -88.0426
26.120426 69.245 -87.5383
26.309705 69.494 -87.2959
26.500356 69.833 -87.5113
26.692388 70.213 -88.2604
26.885812 70.584 -89.4983
27.080638 70.905 -91.0888
27.276876 71.147 -92.8442
27.474535 71.295 -94.5554
27.673627 71.345 -96.0128
27.874161 71.306 -97.0221
28.076149 71.198 -97.4259
28.279600 71.054 -97.1341
28.484526 70.913 -96.1637
28.690937 70.816 -94.6720
28.898843 70.790 -92.9461
29.108256 70.844 -91.3364
29.319186 70.962 -90.1494
29.531645 71.113 -89.5644
29.745644 71.264 -89.6093
29.961193 71.388 -90.1883
30.178304 71.472 -91.1297
30.396989 71.513 -92.2347
30.617258 71.523 -93.3164
30.839123 71.518 -94.2319
31.062596 71.521 -94.9058
31.287688 71.548 -95.3386
31.514412 71.607 -95.5950
31.742778 71.695 -95.7723
31.972800 71.797 -95.9601
32.204488 71.896 -96.2077
32.437855 71.974 -96.5108
32.672913 72.022 -96.8193
32.909674 72.041 -97.0588
33.148151 72.041 -97.1593
33.388356 72.043 -97.0849
33.630302 72.068 -96.8553
33.874001 72.137 -96.5495
34.119466 72.258 -96.2857
34.366710 72.423 -96.1833
34.615745 72.617 -96.3243
34.866585 72.816 -96.7308
35.119243 72.997 -97.3680
35.373731 73.146 -98.1632
35.630064 73.252 -99.0318
35.888254 73.317 -99.9001
36.148315 73.346 -100.7203
36.410261 73.348 -101.4762
36.674104 73.334 -102.1774
36.939860 73.312 -102.8451
37.207542 73.286 -103.4941
37.477163 73.261 -104.1170
37.748738 73.237 -104.6812
38.022281 73.219 -105.1375
38.297806 73.211 -105.4397
38.575327 73.217 -105.5668
38.854860 73.242 -105.5360
39.136419 73.284 -105.4013
39.420017 73.340 -105.2360
39.705671 73.399 -105.1072
39.993395 73.453 -105.0567
40.283203 73.499 -105.0954
40.575112 73.538 -105.2112
40.869136 73.576 -105.3848
41.165290 73.625 -105.6039
41.463591 73.692 -105.8665
41.764053 73.780 -106.1751
42.066693 73.886 -106.5257
42.371525 74.002 -106.9014
42.678567 74.119 -107.2779
42.987834 74.233 -107.6379
43.299341 74.339 -107.9850
43.613106 74.436 -108.3461
43.929145 74.522 -108.7588
44.247473 74.594 -109.2465
44.568109 74.648 -109.7954
44.891068 74.682 -110.3479
45.216367 74.698 -110.8195
45.544023 74.705 -111.1309
45.874054 74.710 -111.2417
46.206476 74.716 -111.1650
46.541307 74.719 -110.9537
46.878565 74.710 -110.6648
47.218266 74.677 -110.3278
47.560429 74.619 -109.9402
47.905072 74.549 -109.4960
48.252212 74.492 -109.0303
48.601867 74.480 -108.6449
48.954056 74.536 -108.4868
49.308798 74.660 -108.6823
49.666109 74.836 -109.2692
50.026010 75.037 -110.1778
50.388520 75.237 -111.2684
50.753656 75.419 -112.3935
51.121437 75.574 -113.4497
51.491884 75.703 -114.3962
51.865016 75.805 -115.2429
52.240851 75.883 -116.0215
52.619410 75.943 -116.7615
53.000712 75.991 -117.4807
53.384777 76.034 -118.1893
53.771625 76.077 -118.8969
54.161276 76.121 -119.6116
54.553751 76.163 -120.3314
54.949070 76.199 -121.0383
55.347254 76.227 -121.7023
55.748323 76.254 -122.2955
56.152298 76.287 -122.8065
56.559201 76.337 -123.2454
56.969052 76.406 -123.6339
57.381873 76.491 -123.9885
57.797686 76.584 -124.3097
58.216512 76.673 -124.5857
58.638373 76.750 -124.8069
59.063291 76.809 -124.9811
59.491288 76.849 -125.1384
59.922386 76.875 -125.3231
60.356608 76.892 -125.5768
60.793977 76.907 -125.9236
61.234515 76.927 -126.3630
61.678246 76.960 -126.8749
62.125192 77.005 -127.4289
62.575377 77.061 -127.9941
63.028824 77.121 -128.5448
63.485557 77.179 -129.0629
63.945599 77.231 -129.5405
64.408975 77.277 -129.9812
64.875709 77.318 -130.3983
65.345825 77.358 -130.8082
65.819348 77.399 -131.2243
66.296302 77.441 -131.6534
66.776713 77.482 -132.0992
67.260604 77.521 -132.5652
67.748002 77.556 -133.0544
68.238932 77.584 -133.5648
68.733420 77.608 -134.0853
69.231490 77.630 -134.5981
69.733170 77.652 -135.0849
70.238485 77.676 -135.5340
70.747463 77.702 -135.9462
71.260128 77.728 -136.3351
71.776508 77.752 -136.7238
72.296630 77.774 -137.1368
72.820521 77.793 -137.5890
73.348209 77.811 -138.0797
73.879720 77.832 -138.5923
74.415083 77.856 -139.1031
74.954326 77.885 -139.5913
75.497475 77.916 -140.0478
76.044561 77.949 -140.4771
76.595612 77.984 -140.8928
77.150655 78.018 -141.3101
77.709720 78.052 -141.7385
78.272837 78.083 -142.1813
78.840034 78.110 -142.6390
79.411342 78.129 -143.1156
79.986789 78.143 -143.6226
80.566406 78.152 -144.1729
81.150224 78.158 -144.7658
81.738272 78.162 -145.3721
82.330581 78.164 -145.9402
82.927182 78.167 -146.4275
83.528107 78.175 -146.8346
84.133386 78.188 -147.2050
84.743051 78.205 -147.5885
85.357134 78.223 -148.0031
85.975667 78.241 -148.4291
86.598682 78.259 -148.8325
87.226212 78.277 -149.1906
87.858289 78.295 -149.5078
88.494946 78.311 -149.8154
89.136217 78.325 -150.1567
89.782135 78.336 -150.5611
90.432733 78.343 -151.0292
91.088046 78.348 -151.5398
91.748108 78.354 -152.0692
92.412952 78.362 -152.6019
93.082615 78.371 -153.1275
93.757130 78.380 -153.6358
94.436533 78.385 -154.1176
95.120859 78.385 -154.5694
95.810144 78.382 -154.9932
96.504423 78.375 -155.3932
97.203734 78.366 -155.7744
97.908112 78.354 -156.1442
98.617595 78.342 -156.5140
99.332219 78.330 -156.8960
100.052021 78.319 -157.2974
100.777039 78.309 -157.7190
101.507311 78.301 -158.1585
102.242875 78.296 -158.6154
102.983769 78.295 -159.0896
103.730032 78.297 -159.5749
104.481702 78.300 -160.0520
105.238820 78.302 -160.4929
106.001424 78.303 -160.8766
106.769554 78.301 -161.2043
107.543250 78.295 -161.4996
108.322553 78.284 -161.7927
109.107503 78.269 -162.1028
109.898141 78.252 -162.4332
110.694508 78.234 -162.7781
111.496646 78.218 -163.1346
112.304596 78.204 -163.5101
113.118402 78.190 -163.9167
113.938104 78.175 -164.3584
114.763747 78.161 -164.8206
115.595372 78.148 -165.2720
116.433024 78.137 -165.6801
117.276746 78.126 -166.0305
118.126581 78.113 -166.3322
118.982575 78.096 -166.6091
119.844772 78.075 -166.8887
120.713217 78.054 -167.1922
121.587954 78.034 -167.5315
122.469031 78.013 -167.9070
123.356492 77.990 -168.3016
124.250384 77.967 -168.6836
125.150753 77.945 -169.0235
126.057647 77.926 -169.3123
126.971113 77.910 -169.5689
127.891198 77.897 -169.8259
128.817950 77.881 -170.1013
129.751418 77.862 -170.3888
130.691651 77.837 -170.6754
131.638696 77.808 -170.9564
132.592604 77.777 -171.2364
133.553425 77.747 -171.5228
134.521208 77.719 -171.8152
135.496004 77.694 -172.1016
136.477864 77.670 -172.3635
137.466839 77.646 -172.5893
138.462981 77.620 -172.7874
139.466340 77.589 -172.9826
140.476971 77.554 -173.1975
141.494925 77.517 -173.4380
142.520256 77.483 -173.6952
143.553016 77.454 -173.9545
144.593260 77.433 -174.2039
145.641043 77.416 -174.4417
146.696418 77.402 -174.6774
147.759441 77.387 -174.9245
148.830166 77.368 -175.1900
149.908651 77.345 -175.4678
150.994951 77.317 -175.7438
152.089123 77.287 -176.0101
153.191223 77.257 -176.2687
154.301310 77.228 -176.5185
155.419441 77.203 -176.7496
156.545674 77.178 -176.9531
157.680069 77.153 -177.1297
158.822683 77.126 -177.2889
159.973578 77.098 -177.4408
161.132813 77.068 -177.5887
162.300447 77.037 -177.7293
163.476543 77.006 -177.8573
164.661162 76.976 -177.9720
165.854364 76.946 -178.0847
167.056213 76.917 -178.2165
168.266772 76.889 -178.3833
169.486102 76.860 -178.5822
170.714268 76.833 -178.7995
171.951334 76.805 -179.0244
173.197364 76.776 -179.2498
174.452424 76.747 -179.4655
175.716578 76.716 -179.6582
176.989893 76.685 -179.8190
178.272434 76.652 -179.9451
179.564270 76.620 179.9615
180.865467 76.588 179.8938
182.176092 76.558 179.8370
183.496216 76.529 179.7734
184.825905 76.502 179.6904
186.165229 76.476 179.5867
187.514259 76.450 179.4690
188.873065 76.424 179.3444
190.241717 76.396 179.2180
191.620287 76.366 179.0970
193.008847 76.333 178.9924
194.407468 76.298 178.9156
195.816225 76.263 178.8661
197.235190 76.230 178.8247
198.664438 76.198 178.7627
200.104042 76.169 178.6618
201.554078 76.140 178.5272
203.014622 76.111 178.3810
204.485750 76.083 178.2452
205.967538 76.056 178.1288
207.460064 76.030 178.0314
208.963405 76.006 177.9498
210.477640 75.982 177.8804
212.002848 75.958 177.8182
213.539108 75.933 177.7571
215.086500 75.906 177.6942
216.645105 75.877 177.6304
218.215005 75.847 177.5681
219.796281 75.817 177.5073
221.389015 75.787 177.4459
222.993292 75.758 177.3827
224.609193 75.731 177.3187
226.236804 75.704 177.2534
227.876209 75.677 177.1852
229.527494 75.650 177.1148
231.190745 75.622 177.0442
232.866048 75.593 176.9755
234.553491 75.563 176.9081
236.253163 75.532 176.8416
237.965150 75.500 176.7781
239.689544 75.468 176.7228
241.426433 75.436 176.6818
243.175909 75.403 176.6592
244.938062 75.371 176.6538
246.712984 75.337 176.6590
248.500768 75.303 176.6673
250.301507 75.267 176.6748
252.115295 75.231 176.6833
253.942226 75.193 176.6964
255.782396 75.156 176.7158
257.635901 75.122 176.7406
259.502837 75.091 176.7677
261.383301 75.063 176.7929
263.277392 75.036 176.8155
265.185209 75.010 176.8390
267.106850 74.984 176.8667
269.042417 74.957 176.8964
270.992009 74.930 176.9222
272.955729 74.902 176.9400
274.933678 74.872 176.9509
276.925961 74.840 176.9584
278.932681 74.809 176.9653
280.953942 74.778 176.9731
282.989850 74.750 176.9839
285.040511 74.723 177.0023
287.106032 74.697 177.0311
289.186521 74.670 177.0687
291.282086 74.642 177.1076
293.392836 74.615 177.1418
295.518881 74.588 177.1730
297.660333 74.562 177.2087
299.817302 74.536 177.2559
301.989902 74.508 177.3184
304.178245 74.479 177.3971
306.382446 74.449 177.4872
308.602620 74.419 177.5775
310.838882 74.391 177.6600
313.091348 74.365 177.7373
315.360137 74.338 177.8191
317.645367 74.312 177.9122
319.947156 74.286 178.0131
322.265625 74.259 178.1121
324.600895 74.230 178.2028
326.953086 74.200 178.2862
329.322323 74.170 178.3677
331.708729 74.141 178.4514
334.112427 74.112 178.5401
336.533543 74.083 178.6357
338.972204 74.054 178.7389
341.428536 74.026 178.8504
343.902668 74.000 178.9708
346.394729 73.976 179.0972
348.904848 73.954 179.2222
351.433156 73.931 179.3373
353.979786 73.908 179.4325
356.544869 73.886 179.4940
359.128540 73.866 179.5121
361.730934 73.848 179.4929
364.352185 73.830 179.4575
366.992431 73.812 179.4301
369.651810 73.792 179.4250
372.330459 73.768 179.4441
375.028519 73.740 179.4821
377.746130 73.708 179.5328
380.483434 73.673 179.5908
383.240574 73.636 179.6522
386.017693 73.596 179.7152
388.814937 73.555 179.7797
391.632450 73.513 179.8445
394.470380 73.471 179.9059
397.328875 73.429 179.9579
400.208084 73.387 179.9976
403.108157 73.344 -179.9704
406.029245 73.298 -179.9372
408.971500 73.246 -179.8937
411.935076 73.186 -179.8325
414.920127 73.118 -179.7500
417.926810 73.041 -179.6411
420.955280 72.956 -179.4922
424.005695 72.863 -179.2779
427.078215 72.763 -178.9626
430.173000 72.658 -178.5052
433.290211 72.555 -177.8685
436.430010 72.460 -177.0342
439.592562 72.386 -176.0173
442.778031 72.342 -174.8738
445.986583 72.335 -173.6940
449.218386 72.365 -172.5794
452.473607 72.427 -171.6190
455.752418 72.508 -170.8670
459.054987 72.596 -170.3358
462.381489 72.683 -170.0022
465.732096 72.761 -169.8233
469.106983 72.827 -169.7512
472.506325 72.881 -169.7418
475.930301 72.924 -169.7607
479.379088 72.955 -169.7843
482.852867 72.978 -169.7988
486.351817 72.992 -169.7992
489.876123 72.998 -169.7866
493.425968 72.999 -169.7648
497.001536 72.995 -169.7352
500.603014 72.988 -169.6947
504.230589 72.976 -169.6366
507.884452 72.963 -169.5554
511.564792 72.947 -169.4509
515.271802 72.929 -169.3265
519.005673 72.912 -169.1874
522.766602 72.894 -169.0385
526.554785 72.877 -168.8823
530.370418 72.862 -168.7189
534.213700 72.848 -168.5480
538.084833 72.835 -168.3706
541.984018 72.823 -168.1903
545.911457 72.810 -168.0095
549.867357 72.795 -167.8253
553.851922 72.778 -167.6310
557.865362 72.757 -167.4216
561.907884 72.736 -167.1964
565.979700 72.714 -166.9578
570.081022 72.695 -166.7089
574.212064 72.680 -166.4527
578.373042 72.668 -166.1917
582.564171 72.658 -165.9279
586.785671 72.649 -165.6625
591.037762 72.639 -165.3951
595.320665 72.627 -165.1241
599.634604 72.614 -164.8463
603.979804 72.601 -164.5588
608.356491 72.588 -164.2614
612.764893 72.576 -163.9575
617.205240 72.565 -163.6531
621.677763 72.556 -163.3549
626.182696 72.548 -163.0666
630.720274 72.540 -162.7881
635.290733 72.532 -162.5149
639.894312 72.523 -162.2408
644.531250 72.513 -161.9603
649.201789 72.503 -161.6694
653.906173 72.494 -161.3676
658.644647 72.484 -161.0567
663.417457 72.476 -160.7406
668.224854 72.467 -160.4237
673.067086 72.459 -160.1106
677.944408 72.452 -159.8056
682.857073 72.446 -159.5101
687.805336 72.442 -159.2220
692.789457 72.440 -158.9358
697.809695 72.439 -158.6431
702.866312 72.438 -158.3358
707.959571 72.436 -158.0098
713.089738 72.433 -157.6677
718.257080 72.428 -157.3193
723.461867 72.421 -156.9748
728.704370 72.413 -156.6375
733.984862 72.403 -156.3043
739.303619 72.394 -155.9703
744.660918 72.386 -155.6317
750.057038 72.381 -155.2869
755.492260 72.378 -154.9370
760.966869 72.376 -154.5828
766.481148 72.375 -154.2236
772.035387 72.374 -153.8582
777.629873 72.374 -153.4868
783.264900 72.374 -153.1118
788.940760 72.374 -152.7356
794.657750 72.374 -152.3581
800.416168 72.373 -151.9784
806.216313 72.371 -151.5967
812.058489 72.371 -151.2148
817.943000 72.370 -150.8340
823.870152 72.370 -150.4552
829.840255 72.371 -150.0769
835.853619 72.371 -149.6960
841.910559 72.372 -149.3106
848.011390 72.373 -148.9214
854.156430 72.374 -148.5302
860.346000 72.373 -148.1379
866.580422 72.372 -147.7437
872.860020 72.372 -147.3475
879.185124 72.373 -146.9495
885.556062 72.377 -146.5476
891.973166 72.383 -146.1393
898.436771 72.390 -145.7240
904.947215 72.397 -145.3034
911.504835 72.404 -144.8782
918.109975 72.411 -144.4477
924.762978 72.416 -144.0123
931.464192 72.420 -143.5759
938.213966 72.422 -143.1443
945.012651 72.423 -142.7216
951.860602 72.423 -142.3080
958.758176 72.423 -141.9024
965.705733 72.422 -141.5038
972.703635 72.420 -141.1113
979.752246 72.416 -140.7218
986.851935 72.411 -140.3294
994.003071 72.404 -139.9254
1001.206027 72.394 -139.5030
1008.461179 72.382 -139.0584
1015.768904 72.366 -138.5895
1023.129584 72.347 -138.0929
1030.543603 72.326 -137.5601
1038.011347 72.303 -136.9783
1045.533205 72.280 -136.3377
1053.109569 72.258 -135.6375
1060.740836 72.238 -134.8843
1068.427401 72.222 -134.0864
1076.169666 72.209 -133.2501
1083.968035 72.201 -132.3796
1091.822915 72.199 -131.4796
1099.734713 72.203 -130.5545
1107.703844 72.215 -129.6100
1115.730723 72.234 -128.6554
1123.815768 72.261 -127.7021
1131.959400 72.294 -126.7587
1140.162045 72.333 -125.8287
1148.424129 72.376 -124.9136
1156.746083 72.423 -124.0121
1165.128342 72.471 -123.1213
1173.571343 72.522 -122.2378
1182.075524 72.575 -121.3582
1190.641331 72.631 -120.4790
1199.269209 72.690 -119.5983
1207.959608 72.753 -118.7153
1216.712981 72.820 -117.8317
1225.529785 72.890 -116.9504
1234.410479 72.964 -116.0713
1243.355526 73.040 -115.1925
1252.365393 73.119 -114.3132
1261.440549 73.200 -113.4336
1270.581467 73.283 -112.5556
1279.788624 73.371 -111.6827
1289.062500 73.462 -110.8177
1298.403578 73.556 -109.9616
1307.812346 73.655 -109.1130
1317.289293 73.756 -108.2700
1326.834914 73.861 -107.4303
1336.449707 73.969 -106.5929
1346.134173 74.079 -105.7585
1355.888816 74.193 -104.9300
1365.714145 74.311 -104.1111
1375.610673 74.431 -103.3050
1385.578915 74.555 -102.5122
1395.619391 74.681 -101.7303
1405.732624 74.809 -100.9544
1415.919142 74.941 -100.1819
1426.179476 75.077 -99.4151
1436.514160 75.216 -98.6594
1446.923734 75.360 -97.9195
1457.408740 75.506 -97.1973
1467.969724 75.655 -96.4916
1478.607238 75.807 -95.7984
1489.321836 75.961 -95.1133
1500.114076 76.119 -94.4352
1510.984521 76.279 -93.7674
1521.933737 76.443 -93.1146
1532.962297 76.609 -92.4789
1544.070773 76.779 -91.8603
1555.259747 76.951 -91.2585
1566.529800 77.126 -90.6735
1577.881521 77.303 -90.1052
1589.315501 77.484 -89.5545
1600.832336 77.668 -89.0235
1612.432627 77.857 -88.5146
1624.116978 78.049 -88.0289
1635.886000 78.244 -87.5663
1647.740304 78.442 -87.1265
1659.680509 78.642 -86.7099
1671.707238 78.845 -86.3164
1683.821118 79.051 -85.9461
1696.022780 79.259 -85.6003
1708.312860 79.469 -85.2806
1720.692000 79.682 -84.9890
1733.160843 79.898 -84.7265
1745.720041 80.116 -84.4938
1758.370248 80.337 -84.2921
1771.112124 80.560 -84.1240
1783.946332 80.786 -83.9922
1796.873543 81.014 -83.8966
1809.894429 81.242 -83.8349
1823.009670 81.472 -83.8056
1836.219950 81.704 -83.8102
1849.525956 81.937 -83.8525
1862.928384 82.171 -83.9349
1876.427931 82.406 -84.0569
1890.025301 82.641 -84.2172
1903.721204 82.877 -84.4154
1917.516352 83.114 -84.6524
1931.411466 83.351 -84.9306
1945.407270 83.589 -85.2524
1959.504493 83.826 -85.6186
1973.703870 84.062 -86.0276
1988.006142 84.297 -86.4775
2002.412054 84.531 -86.9669
2016.922357 84.764 -87.4973
2031.537808 84.995 -88.0707
2046.259169 85.225 -88.6892
2061.087206 85.454 -89.3539
2076.022694 85.679 -90.0645
2091.066410 85.903 -90.8202
2106.219139 86.124 -91.6204
2121.481671 86.341 -92.4647
2136.854802 86.555 -93.3526
2152.339333 86.766 -94.2836
2167.936071 86.972 -95.2578
2183.645829 87.174 -96.2750
2199.469427 87.370 -97.3352
2215.407689 87.562 -98.4373
2231.461446 87.748 -99.5795
2247.631536 87.929 -100.7600
2263.918800 88.103 -101.9778
2280.324089 88.271 -103.2319
2296.848258 88.432 -104.5208
2313.492167 88.586 -105.8427
2330.256685 88.732 -107.1959
2347.142685 88.871 -108.5789
2364.151049 89.001 -109.9902
2381.282662 89.121 -111.4268
2398.538418 89.232 -112.8834
2415.919216 89.332 -114.3530
2433.425962 89.422 -115.8273
2451.059570 89.500 -117.2960
2468.820958 89.569 -118.7486
2486.711052 89.629 -120.1768
2504.730786 89.683 -121.5792
2522.881098 89.732 -122.9594
2541.162934 89.777 -124.3227
2559.577248 89.818 -125.6727
2578.125000 89.857 -127.0142
2596.807157 89.892 -128.3568
2615.624692 89.924 -129.7111
2634.578586 89.950 -131.0821
2653.669829 89.968 -132.4652
2672.899414 89.977 -133.8507
2692.268345 89.976 -135.2280
2711.777632 89.966 -136.5881
2731.428290 89.948 -137.9235
2751.221345 89.922 -139.2291
2771.157829 89.890 -140.5022
2791.238781 89.851 -141.7418
2811.465248 89.808 -142.9474
2831.838284 89.759 -144.1192
2852.358952 89.706 -145.2578
2873.028321 89.649 -146.3638
2893.847468 89.588 -147.4374
2914.817480 89.524 -148.4786
2935.939449 89.455 -149.4872
2957.214476 89.384 -150.4625
2978.643672 89.309 -151.4041
3000.228152 89.232 -152.3115
3021.969041 89.151 -153.1846
3043.867475 89.069 -154.0235
3065.924593 88.985 -154.8290
3088.141547 88.899 -155.6021
3110.519493 88.812 -156.3435
3133.059600 88.723 -157.0538
3155.763041 88.634 -157.7334
3178.631001 88.543 -158.3830
3201.664672 88.451 -159.0032
3224.865254 88.359 -159.5945
3248.233957 88.266 -160.1577
3271.771999 88.173 -160.6927
3295.480608 88.079 -161.1997
3319.361019 87.984 -161.6791
