* Measurement data measured by REW V5.31.3
* Source: EXCL: Микрофон (CX31993 384Khz HIFI AUDIO), MICROPHONE (Общая громкость), 0, volume: 1,000
* Format: 256k Log Swept Sine, 1 sweep at -20,0 dBFS with no timing reference
* Dated: 26.05.2025 16:24:44
* REW Settings:
*  C-weighting compensation: Off
*  Target level: 75.0 dB
* Note: 
* Measurement: Oppo Enco X
* Smoothing: 1/12 octave
* Frequency Step: 96 ppo
* Start Frequency: 20.187378 Hz
*
* Freq(Hz) SPL(dB) Phase(degrees)
20.187378 86.361 -17.8295
20.333664 86.356 -17.8485
20.481010 86.348 -17.8758
20.629424 86.337 -17.9078
20.778913 86.324 -17.9415
20.929486 86.308 -17.9747
21.081150 86.290 -18.0060
21.233912 86.269 -18.0345
21.387782 86.247 -18.0598
21.542767 86.224 -18.0817
21.698874 86.200 -18.1002
21.856113 86.174 -18.1156
22.014492 86.149 -18.1285
22.174018 86.124 -18.1397
22.334700 86.100 -18.1508
22.496546 86.077 -18.1635
22.659566 86.057 -18.1800
22.823766 86.039 -18.2026
22.989157 86.024 -18.2337
23.155745 86.011 -18.2754
23.323542 86.001 -18.3290
23.492554 85.994 -18.3951
23.662790 85.990 -18.4735
23.834261 85.987 -18.5628
24.006973 85.985 -18.6611
24.180938 85.985 -18.7659
24.356163 85.986 -18.8746
24.532658 85.988 -18.9846
24.710431 85.990 -19.0939
24.889493 85.993 -19.2013
25.069853 85.996 -19.3057
25.251519 85.999 -19.4071
25.434502 86.002 -19.5052
25.618811 86.004 -19.6001
25.804456 86.006 -19.6915
25.991445 86.006 -19.7790
26.179790 86.005 -19.8618
26.369500 86.003 -19.9392
26.560584 86.000 -20.0106
26.753053 85.996 -20.0761
26.946917 85.992 -20.1364
27.142185 85.987 -20.1928
27.338869 85.983 -20.2475
27.536977 85.980 -20.3027
27.736522 85.977 -20.3603
27.937512 85.974 -20.4215
28.139959 85.972 -20.4867
28.343872 85.970 -20.5551
28.549264 85.968 -20.6255
28.756143 85.967 -20.6960
28.964522 85.965 -20.7654
29.174411 85.965 -20.8334
29.385821 85.966 -20.9007
29.598763 85.968 -20.9695
29.813248 85.971 -21.0429
30.029287 85.975 -21.1244
30.246891 85.981 -21.2175
30.466073 85.986 -21.3247
30.686842 85.991 -21.4471
30.909212 85.995 -21.5849
31.133193 85.998 -21.7364
31.358797 85.999 -21.8997
31.586035 85.999 -22.0716
31.814921 85.996 -22.2494
32.045465 85.993 -22.4301
32.277680 85.988 -22.6111
32.511577 85.983 -22.7902
32.747169 85.978 -22.9659
32.984469 85.974 -23.1372
33.223488 85.971 -23.3039
33.464239 85.969 -23.4668
33.706735 85.970 -23.6271
33.950987 85.973 -23.7863
34.197010 85.977 -23.9456
34.444816 85.982 -24.1055
34.694417 85.987 -24.2655
34.945827 85.993 -24.4238
35.199059 85.997 -24.5782
35.454126 86.000 -24.7265
35.711041 86.002 -24.8673
35.969818 86.004 -25.0011
36.230470 86.005 -25.1296
36.493011 86.007 -25.2562
36.757455 86.008 -25.3841
37.023814 86.010 -25.5164
37.292104 86.011 -25.6545
37.562338 86.013 -25.7981
37.834530 86.015 -25.9460
38.108695 86.016 -26.0967
38.384846 86.016 -26.2497
38.662999 86.016 -26.4056
38.943167 86.016 -26.5669
39.225365 86.014 -26.7360
39.509608 86.011 -26.9146
39.795911 86.006 -27.1026
40.084289 86.000 -27.2978
40.374756 85.993 -27.4967
40.667328 85.987 -27.6957
40.962020 85.982 -27.8923
41.258848 85.980 -28.0857
41.557827 85.981 -28.2760
41.858972 85.983 -28.4631
42.162299 85.987 -28.6457
42.467824 85.989 -28.8223
42.775564 85.991 -28.9924
43.085533 85.990 -29.1585
43.397749 85.989 -29.3273
43.712227 85.988 -29.5075
44.028983 85.987 -29.7061
44.348036 85.986 -29.9240
44.669400 85.987 -30.1544
44.993093 85.988 -30.3846
45.319131 85.990 -30.6015
45.647532 85.992 -30.7984
45.978313 85.993 -30.9771
46.311491 85.988 -31.1459
46.647083 85.973 -31.3133
46.985107 85.945 -31.4821
47.325581 85.903 -31.6483
47.668521 85.850 -31.8052
48.013947 85.795 -31.9520
48.361876 85.747 -32.0993
48.712326 85.717 -32.2671
49.065315 85.710 -32.4767
49.420863 85.725 -32.7382
49.778987 85.759 -33.0446
50.139706 85.805 -33.3745
50.503039 85.853 -33.7022
50.869005 85.897 -34.0077
51.237623 85.931 -34.2821
51.608912 85.952 -34.5256
51.982891 85.960 -34.7433
52.359580 85.955 -34.9411
52.739000 85.943 -35.1244
53.121168 85.928 -35.2996
53.506106 85.916 -35.4730
53.893833 85.907 -35.6498
54.284370 85.904 -35.8323
54.677737 85.906 -36.0202
55.073955 85.910 -36.2128
55.473043 85.916 -36.4115
55.875024 85.924 -36.6193
56.279917 85.931 -36.8382
56.687745 85.937 -37.0657
57.098527 85.941 -37.2952
57.512287 85.945 -37.5187
57.929045 85.948 -37.7311
58.348822 85.950 -37.9329
58.771642 85.952 -38.1293
59.197525 85.954 -38.3275
59.626495 85.954 -38.5336
60.058573 85.954 -38.7500
60.493782 85.952 -38.9763
60.932145 85.949 -39.2103
61.373685 85.946 -39.4504
61.818424 85.944 -39.6961
62.266386 85.942 -39.9481
62.717593 85.940 -40.2063
63.172071 85.937 -40.4696
63.629842 85.935 -40.7350
64.090930 85.932 -40.9996
64.555359 85.930 -41.2605
65.023154 85.928 -41.5166
65.494339 85.927 -41.7677
65.968938 85.926 -42.0148
66.446976 85.926 -42.2601
66.928478 85.926 -42.5057
67.413469 85.926 -42.7541
67.901975 85.926 -43.0066
68.394021 85.926 -43.2632
68.889632 85.925 -43.5224
69.388835 85.924 -43.7814
69.891655 85.923 -44.0377
70.398118 85.922 -44.2904
70.908252 85.921 -44.5405
71.422083 85.920 -44.7905
71.939636 85.918 -45.0419
72.460941 85.917 -45.2946
72.986023 85.916 -45.5480
73.514909 85.917 -45.8028
74.047629 85.920 -46.0624
74.584208 85.925 -46.3319
75.124676 85.933 -46.6164
75.669061 85.941 -46.9193
76.217390 85.950 -47.2408
76.769692 85.958 -47.5761
77.325997 85.964 -47.9151
77.886333 85.968 -48.2448
78.450730 85.969 -48.5547
79.019216 85.969 -48.8409
79.591822 85.968 -49.1066
80.168577 85.966 -49.3594
80.749512 85.963 -49.6092
81.334656 85.960 -49.8660
81.924040 85.957 -50.1380
82.517696 85.954 -50.4286
83.115653 85.952 -50.7365
83.717943 85.952 -51.0587
84.324598 85.953 -51.3918
84.935649 85.955 -51.7310
85.551128 85.957 -52.0688
86.171066 85.961 -52.3988
86.795497 85.968 -52.7205
87.424453 85.978 -53.0390
88.057967 85.990 -53.3582
88.696071 86.000 -53.6767
89.338800 86.005 -53.9881
89.986185 86.003 -54.2866
90.638262 85.996 -54.5724
91.295065 85.987 -54.8531
91.956626 85.981 -55.1392
92.622982 85.980 -55.4358
93.294166 85.983 -55.7392
93.970214 85.991 -56.0414
94.651161 86.003 -56.3366
95.337042 86.020 -56.6231
96.027894 86.041 -56.9046
96.723752 86.065 -57.1900
97.424652 86.088 -57.4941
98.130631 86.108 -57.8343
98.841726 86.125 -58.2234
99.557974 86.137 -58.6637
100.279412 86.145 -59.1450
101.006078 86.151 -59.6487
101.738010 86.154 -60.1566
102.475245 86.157 -60.6585
103.217823 86.160 -61.1528
103.965782 86.164 -61.6420
104.719161 86.169 -62.1288
105.477999 86.174 -62.6165
106.242336 86.178 -63.1092
107.012212 86.179 -63.6099
107.787666 86.177 -64.1192
108.568740 86.174 -64.6351
109.355474 86.169 -65.1532
110.147909 86.164 -65.6695
110.946086 86.159 -66.1822
111.750047 86.153 -66.6918
112.559834 86.147 -67.1991
113.375489 86.139 -67.7044
114.197055 86.130 -68.2079
115.024574 86.119 -68.7095
115.858089 86.108 -69.2095
116.697645 86.096 -69.7080
117.543284 86.084 -70.2059
118.395051 86.073 -70.7052
119.252990 86.063 -71.2081
120.117147 86.054 -71.7152
120.987565 86.044 -72.2257
121.864291 86.033 -72.7372
122.747370 86.020 -73.2468
123.636848 86.004 -73.7518
124.532771 85.984 -74.2509
125.435187 85.963 -74.7451
126.344142 85.940 -75.2376
127.259684 85.918 -75.7318
128.181860 85.896 -76.2300
129.110718 85.875 -76.7314
130.046308 85.855 -77.2328
130.988677 85.836 -77.7326
131.937875 85.817 -78.2319
132.893951 85.799 -78.7328
133.856956 85.781 -79.2361
134.826938 85.763 -79.7417
135.803950 85.744 -80.2493
136.788041 85.725 -80.7594
137.779264 85.704 -81.2726
138.777669 85.682 -81.7885
139.783309 85.659 -82.3058
140.796237 85.636 -82.8219
141.816504 85.612 -83.3349
142.844165 85.588 -83.8439
143.879273 85.562 -84.3491
144.921881 85.535 -84.8504
145.972045 85.506 -85.3479
147.029819 85.475 -85.8421
148.095257 85.444 -86.3345
149.168417 85.413 -86.8269
150.249353 85.382 -87.3192
151.338121 85.353 -87.8102
152.434780 85.325 -88.2972
153.539385 85.296 -88.7781
154.651995 85.267 -89.2528
155.772667 85.236 -89.7230
156.901460 85.205 -90.1907
158.038432 85.172 -90.6576
159.183644 85.140 -91.1241
160.337154 85.106 -91.5895
161.499023 85.073 -92.0527
162.669312 85.039 -92.5126
163.848081 85.005 -92.9690
165.035392 84.971 -93.4221
166.231306 84.937 -93.8726
167.435887 84.903 -94.3211
168.649196 84.869 -94.7680
169.871298 84.835 -95.2129
171.102255 84.801 -95.6548
172.342133 84.768 -96.0928
173.590995 84.734 -96.5266
174.848907 84.701 -96.9565
176.115934 84.667 -97.3829
177.392143 84.633 -97.8054
178.677599 84.598 -98.2237
179.972371 84.564 -98.6373
181.276525 84.529 -99.0461
182.590129 84.494 -99.4498
183.913252 84.460 -99.8481
185.245964 84.425 -100.2407
186.588332 84.390 -100.6273
187.940428 84.356 -101.0078
189.302322 84.321 -101.3820
190.674085 84.287 -101.7498
192.055788 84.252 -102.1108
193.447503 84.217 -102.4649
194.849303 84.182 -102.8125
196.261262 84.147 -103.1549
197.683452 84.113 -103.4935
199.115948 84.079 -103.8293
200.558824 84.046 -104.1623
202.012156 84.013 -104.4917
203.476019 83.982 -104.8157
204.950490 83.951 -105.1325
206.435646 83.921 -105.4408
207.931564 83.891 -105.7392
209.438322 83.862 -106.0262
210.955998 83.833 -106.3003
212.484672 83.806 -106.5604
214.024424 83.781 -106.8054
215.575333 83.756 -107.0341
217.137481 83.733 -107.2441
218.710948 83.712 -107.4320
220.295818 83.694 -107.5946
221.892172 83.679 -107.7290
223.500094 83.670 -107.8341
225.119668 83.668 -107.9123
226.750978 83.674 -107.9703
228.394109 83.692 -108.0194
230.049147 83.721 -108.0776
231.716178 83.761 -108.1688
233.395289 83.813 -108.3192
235.086567 83.874 -108.5522
236.790102 83.939 -108.8823
238.505980 84.005 -109.3136
240.234293 84.068 -109.8390
241.975130 84.125 -110.4420
243.728581 84.174 -111.1006
245.494739 84.214 -111.7912
247.273695 84.245 -112.4928
249.065542 84.268 -113.1886
250.870374 84.282 -113.8686
252.688284 84.289 -114.5290
254.519367 84.292 -115.1711
256.363720 84.293 -115.7973
258.221437 84.293 -116.4097
260.092616 84.294 -117.0103
261.977354 84.296 -117.6012
263.875750 84.299 -118.1846
265.787903 84.304 -118.7624
267.713911 84.309 -119.3367
269.653877 84.315 -119.9098
271.607900 84.322 -120.4832
273.576083 84.328 -121.0585
275.558528 84.336 -121.6365
277.555338 84.344 -122.2172
279.566619 84.353 -122.8008
281.592474 84.362 -123.3869
283.633009 84.371 -123.9759
285.688331 84.381 -124.5685
287.758546 84.392 -125.1658
289.843763 84.402 -125.7684
291.944090 84.413 -126.3765
294.059638 84.423 -126.9902
296.190515 84.434 -127.6096
298.336833 84.444 -128.2357
300.498705 84.455 -128.8694
302.676243 84.465 -129.5109
304.869559 84.476 -130.1589
307.078770 84.487 -130.8124
309.303989 84.498 -131.4709
311.545334 84.509 -132.1346
313.802919 84.521 -132.8037
316.076865 84.532 -133.4783
318.367288 84.544 -134.1581
320.674309 84.556 -134.8429
322.998047 84.568 -135.5334
325.338624 84.580 -136.2303
327.696162 84.591 -136.9339
330.070783 84.603 -137.6441
332.462612 84.614 -138.3606
334.871773 84.626 -139.0831
337.298392 84.637 -139.8112
339.742595 84.649 -140.5443
342.204510 84.660 -141.2815
344.684265 84.671 -142.0212
347.181989 84.682 -142.7606
349.697813 84.692 -143.4953
352.231868 84.703 -144.2227
354.784285 84.713 -144.9446
357.355198 84.723 -145.6665
359.944741 84.735 -146.3936
362.553049 84.747 -147.1299
365.180258 84.759 -147.8774
367.826505 84.773 -148.6376
370.491927 84.787 -149.4115
373.176665 84.801 -150.2000
375.880856 84.815 -151.0031
378.604644 84.828 -151.8202
381.348169 84.841 -152.6500
384.111575 84.854 -153.4905
386.895006 84.865 -154.3396
389.698607 84.875 -155.1954
392.522524 84.885 -156.0556
395.366904 84.893 -156.9185
398.231895 84.902 -157.7820
401.117648 84.909 -158.6452
404.024312 84.916 -159.5083
406.952038 84.923 -160.3724
409.900981 84.929 -161.2391
412.871292 84.934 -162.1092
415.863128 84.939 -162.9829
418.876643 84.945 -163.8598
421.911996 84.950 -164.7394
424.969344 84.955 -165.6210
428.048847 84.959 -166.5041
431.150666 84.964 -167.3878
434.274961 84.968 -168.2714
437.421897 84.972 -169.1544
440.591636 84.976 -170.0368
443.784345 84.980 -170.9203
447.000189 84.983 -171.8075
450.239337 84.986 -172.7013
453.501956 84.989 -173.6033
456.788219 84.992 -174.5121
460.098294 84.994 -175.4250
463.432356 84.997 -176.3405
466.790578 84.999 -177.2582
470.173135 85.001 -178.1779
473.580203 85.004 -179.0999
477.011961 85.007 179.9752
480.468586 85.010 179.0469
483.950259 85.014 178.1148
487.457163 85.017 177.1786
490.989478 85.021 176.2379
494.547390 85.025 175.2928
498.131084 85.029 174.3436
501.740748 85.034 173.3906
505.376568 85.038 172.4340
509.038735 85.043 171.4740
512.727439 85.048 170.5105
516.442874 85.053 169.5435
520.185232 85.059 168.5728
523.954708 85.064 167.5983
527.751500 85.069 166.6195
531.575805 85.074 165.6365
535.427822 85.080 164.6492
539.307753 85.085 163.6581
543.215800 85.090 162.6638
547.152165 85.094 161.6665
551.117055 85.098 160.6653
555.110677 85.101 159.6591
559.133237 85.104 158.6474
563.184947 85.106 157.6304
567.266018 85.109 156.6082
571.376661 85.112 155.5809
575.517092 85.115 154.5487
579.687526 85.118 153.5117
583.888181 85.122 152.4699
588.119275 85.125 151.4236
592.381030 85.129 150.3726
596.673667 85.133 149.3170
600.997410 85.137 148.2568
605.352485 85.142 147.1919
609.739119 85.146 146.1219
614.157540 85.150 145.0464
618.607979 85.155 143.9651
623.090667 85.159 142.8779
627.605839 85.163 141.7849
632.153730 85.168 140.6861
636.734576 85.172 139.5817
641.348617 85.176 138.4729
645.996094 85.180 137.3625
650.677248 85.184 136.2539
655.392323 85.187 135.1486
660.141566 85.191 134.0450
664.925224 85.194 132.9409
669.743546 85.197 131.8346
674.596784 85.200 130.7255
679.485191 85.203 129.6135
684.409020 85.207 128.4983
689.368530 85.212 127.3793
694.363979 85.218 126.2556
699.395626 85.225 125.1254
704.463736 85.234 123.9861
709.568570 85.244 122.8351
714.710396 85.255 121.6691
719.889483 85.268 120.4854
725.106099 85.281 119.2818
730.360516 85.293 118.0567
735.653010 85.305 116.8099
740.983855 85.316 115.5431
746.353329 85.324 114.2591
751.761713 85.331 112.9623
757.209288 85.334 111.6569
762.696339 85.336 110.3463
768.223151 85.335 109.0332
773.790013 85.332 107.7202
779.397214 85.327 106.4092
785.045047 85.320 105.1014
790.733808 85.313 103.7969
796.463791 85.305 102.4951
802.235296 85.295 101.1955
808.048623 85.286 99.8976
813.904077 85.275 98.6011
819.801961 85.264 97.3061
825.742584 85.252 96.0123
831.726255 85.239 94.7195
837.753287 85.226 93.4276
843.823992 85.213 92.1371
849.938689 85.199 90.8487
856.097695 85.185 89.5626
862.301332 85.170 88.2783
868.549922 85.155 86.9948
874.843793 85.140 85.7112
881.183272 85.124 84.4268
887.568689 85.108 83.1417
894.000378 85.092 81.8560
900.478673 85.076 80.5700
907.003913 85.061 79.2844
913.576437 85.045 77.9995
920.196588 85.030 76.7152
926.864712 85.015 75.4312
933.581156 85.001 74.1474
940.346270 84.987 72.8634
947.160407 84.974 71.5790
954.023921 84.961 70.2938
960.937172 84.948 69.0072
967.900519 84.936 67.7190
974.914325 84.924 66.4290
981.978956 84.912 65.1371
989.094780 84.900 63.8432
996.262169 84.889 62.5468
1003.481495 84.877 61.2474
1010.753136 84.866 59.9445
1018.077470 84.855 58.6375
1025.454879 84.844 57.3265
1032.885748 84.832 56.0119
1040.370463 84.821 54.6949
1047.909417 84.810 53.3770
1055.503000 84.798 52.0591
1063.151610 84.786 50.7404
1070.855645 84.774 49.4184
1078.615506 84.761 48.0916
1086.431599 84.749 46.7590
1094.304330 84.737 45.4202
1102.234110 84.725 44.0753
1110.221353 84.712 42.7251
1118.266475 84.700 41.3701
1126.369895 84.687 40.0109
1134.532035 84.674 38.6483
1142.753322 84.661 37.2842
1151.034184 84.648 35.9212
1159.375052 84.634 34.5607
1167.776361 84.620 33.2014
1176.238550 84.606 31.8412
1184.762060 84.591 30.4789
1193.347334 84.576 29.1149
1201.994821 84.561 27.7502
1210.704971 84.546 26.3861
1219.478238 84.531 25.0232
1228.315080 84.515 23.6616
1237.215957 84.499 22.3011
1246.181334 84.482 20.9413
1255.211678 84.464 19.5812
1264.307459 84.445 18.2217
1273.469152 84.425 16.8642
1282.697235 84.404 15.5107
1291.992188 84.383 14.1625
1301.354495 84.362 12.8199
1310.784647 84.342 11.4830
1320.283132 84.321 10.1514
1329.850448 84.300 8.8249
1339.487093 84.279 7.5023
1349.193569 84.259 6.1823
1358.970381 84.238 4.8634
1368.818041 84.217 3.5464
1378.737061 84.196 2.2331
1388.727958 84.176 0.9245
1398.791253 84.156 -0.3792
1408.927471 84.138 -1.6783
1419.137140 84.120 -2.9736
1429.420793 84.103 -4.2653
1439.778965 84.087 -5.5522
1450.212197 84.072 -6.8334
1460.721033 84.057 -8.1078
1471.306019 84.044 -9.3763
1481.967709 84.031 -10.6403
1492.706658 84.019 -11.9006
1503.523426 84.008 -13.1578
1514.418576 83.997 -14.4117
1525.392678 83.987 -15.6616
1536.446302 83.978 -16.9069
1547.580025 83.970 -18.1464
1558.794428 83.963 -19.3795
1570.090095 83.956 -20.6066
1581.467615 83.951 -21.8286
1592.927581 83.946 -23.0461
1604.470591 83.943 -24.2595
1616.097246 83.940 -25.4691
1627.808153 83.939 -26.6754
1639.603922 83.939 -27.8799
1651.485168 83.940 -29.0847
1663.452510 83.943 -30.2912
1675.506573 83.947 -31.4998
1687.647984 83.953 -32.7100
1699.877377 83.960 -33.9214
1712.195390 83.967 -35.1337
1724.602663 83.976 -36.3457
1737.099845 83.986 -37.5566
1749.687587 83.997 -38.7656
1762.366544 84.010 -39.9716
1775.137379 84.023 -41.1742
1788.000756 84.038 -42.3733
1800.957346 84.055 -43.5692
1814.007826 84.073 -44.7623
1827.152874 84.092 -45.9531
1840.393177 84.112 -47.1421
1853.729425 84.133 -48.3293
1867.162312 84.156 -49.5141
1880.692540 84.179 -50.6945
1894.320813 84.204 -51.8678
1908.047843 84.230 -53.0309
1921.874344 84.257 -54.1813
1935.801038 84.286 -55.3173
1949.828650 84.318 -56.4391
1963.957912 84.354 -57.5484
1978.189561 84.394 -58.6481
1992.524338 84.441 -59.7439
2006.962991 84.494 -60.8444
2021.506272 84.554 -61.9602
2036.154940 84.620 -63.1025
2050.909758 84.691 -64.2810
2065.771495 84.765 -65.5017
2080.740927 84.841 -66.7657
2095.818833 84.916 -68.0691
2111.006001 84.990 -69.4052
2126.303220 85.061 -70.7660
2141.711290 85.131 -72.1444
2157.231013 85.199 -73.5350
2172.863198 85.266 -74.9337
2188.608660 85.332 -76.3383
2204.468221 85.398 -77.7471
2220.442706 85.465 -79.1595
2236.532950 85.531 -80.5756
2252.739789 85.598 -81.9962
2269.064070 85.665 -83.4218
2285.506644 85.732 -84.8531
2302.068367 85.800 -86.2904
2318.750104 85.869 -87.7338
2335.552723 85.938 -89.1836
2352.477101 86.008 -90.6402
2369.524119 86.078 -92.1039
2386.694668 86.148 -93.5751
2403.989641 86.219 -95.0535
2421.409941 86.289 -96.5391
2438.956476 86.360 -98.0317
2456.630160 86.431 -99.5318
2474.431915 86.502 -101.0396
2492.362668 86.574 -102.5557
2510.423356 86.646 -104.0807
2528.614918 86.719 -105.6154
2546.938304 86.792 -107.1608
2565.394469 86.866 -108.7180
2583.984375 86.940 -110.2886
2602.708991 87.015 -111.8738
2621.569293 87.089 -113.4750
2640.566265 87.162 -115.0928
2659.700897 87.235 -116.7270
2678.974186 87.306 -118.3772
2698.387137 87.376 -120.0424
2717.940763 87.444 -121.7215
2737.636082 87.511 -123.4137
2757.474121 87.575 -125.1181
2777.455915 87.636 -126.8337
2797.582506 87.695 -128.5594
2817.854942 87.751 -130.2936
2838.274281 87.804 -132.0349
2858.841586 87.854 -133.7815
2879.557931 87.900 -135.5317
2900.424394 87.943 -137.2840
2921.442065 87.982 -139.0363
2942.612039 88.017 -140.7864
2963.935418 88.049 -142.5322
2985.413316 88.076 -144.2712
3007.046852 88.100 -146.0016
3028.837153 88.121 -147.7219
3050.785356 88.138 -149.4321
3072.892604 88.153 -151.1324
3095.160050 88.165 -152.8230
3117.588856 88.174 -154.5040
3140.180190 88.180 -156.1749
3162.935230 88.183 -157.8345
3185.855163 88.182 -159.4818
3208.941182 88.179 -161.1152
3232.194493 88.172 -162.7334
3255.616307 88.161 -164.3343
3279.207844 88.148 -165.9158
3302.970336 88.131 -167.4758
3326.905021 88.111 -169.0118
3351.013146 88.088 -170.5215
3375.295969 88.061 -172.0024
3399.754755 88.032 -173.4518
3424.390779 88.001 -174.8670
3449.205326 87.967 -176.2454
3474.199690 87.931 -177.5851
3499.375173 87.893 -178.8850
3524.733088 87.854 179.8554
3550.274757 87.814 178.6365
3576.001511 87.773 177.4584
3601.914692 87.732 176.3215
3628.015651 87.690 175.2260
3654.305748 87.649 174.1719
