* Measurement data measured by REW V5.31.3
* Source: Input device not selected, no input selected, L, volume: no control
* Format: 256k Log Swept Sine, 1 sweep at -12,0 dBFS with no timing reference
* Dated: 17.11.2024 19:54:08
* REW Settings:
*  C-weighting compensation: Off
*  Target level: 75.0 dB
* Note: 
* Measurement: RIO X
* Smoothing: 1/12 octave
* Frequency Step: 96 ppo
* Start Frequency: 20.141602 Hz
*
* Freq(Hz) SPL(dB) Phase(degrees)
20.141602 95.691 -48.1670
20.287556 95.730 -48.2690
20.434568 95.788 -48.4181
20.582645 95.859 -48.5999
20.731796 95.939 -48.8046
20.882027 96.025 -49.0275
21.033346 96.114 -49.2683
21.185763 96.204 -49.5284
21.339284 96.294 -49.8099
21.493917 96.382 -50.1132
21.649671 96.468 -50.4367
21.806553 96.551 -50.7764
21.964572 96.631 -51.1256
22.123737 96.708 -51.4761
22.284054 96.783 -51.8191
22.445534 96.857 -52.1459
22.608183 96.931 -52.4501
22.772012 97.009 -52.7280
22.937027 97.090 -52.9797
23.103238 97.177 -53.2097
23.270654 97.272 -53.4262
23.439282 97.373 -53.6403
23.609133 97.481 -53.8647
23.780215 97.594 -54.1116
23.952536 97.710 -54.3914
24.126106 97.828 -54.7106
24.300934 97.943 -55.0713
24.477028 98.053 -55.4707
24.654399 98.158 -55.9017
24.833055 98.254 -56.3539
25.013005 98.343 -56.8146
25.194260 98.424 -57.2709
25.376828 98.499 -57.7113
25.560719 98.569 -58.1266
25.745942 98.638 -58.5119
25.932508 98.708 -58.8662
26.120426 98.781 -59.1931
26.309705 98.859 -59.4994
26.500356 98.943 -59.7942
26.692388 99.033 -60.0869
26.885812 99.128 -60.3857
27.080638 99.227 -60.6964
27.276876 99.329 -61.0211
27.474535 99.431 -61.3587
27.673627 99.532 -61.7052
27.874161 99.630 -62.0544
28.076149 99.724 -62.3998
28.279600 99.815 -62.7352
28.484526 99.903 -63.0567
28.690937 99.988 -63.3622
28.898843 100.070 -63.6527
29.108256 100.151 -63.9312
29.319186 100.230 -64.2024
29.531645 100.309 -64.4715
29.745644 100.387 -64.7430
29.961193 100.465 -65.0205
30.178304 100.542 -65.3060
30.396989 100.619 -65.6000
30.617258 100.695 -65.9022
30.839123 100.772 -66.2120
31.062596 100.849 -66.5296
31.287688 100.928 -66.8559
31.514412 101.008 -67.1924
31.742778 101.089 -67.5409
31.972800 101.172 -67.9021
32.204488 101.255 -68.2750
32.437855 101.337 -68.6561
32.672913 101.419 -69.0395
32.909674 101.500 -69.4177
33.148151 101.580 -69.7833
33.388356 101.659 -70.1307
33.630302 101.739 -70.4576
33.874001 101.821 -70.7662
34.119466 101.904 -71.0622
34.366710 101.989 -71.3538
34.615745 102.075 -71.6492
34.866585 102.161 -71.9546
35.119243 102.245 -72.2722
35.373731 102.326 -72.6002
35.630064 102.404 -72.9336
35.888254 102.479 -73.2661
36.148315 102.551 -73.5925
36.410261 102.622 -73.9097
36.674104 102.692 -74.2181
36.939860 102.762 -74.5204
37.207542 102.833 -74.8208
37.477163 102.904 -75.1232
37.748738 102.977 -75.4306
38.022281 103.051 -75.7444
38.297806 103.127 -76.0655
38.575327 103.204 -76.3937
38.854860 103.284 -76.7292
39.136419 103.365 -77.0713
39.420017 103.447 -77.4189
39.705671 103.530 -77.7701
39.993395 103.612 -78.1224
40.283203 103.692 -78.4737
40.575112 103.769 -78.8226
40.869136 103.844 -79.1690
41.165290 103.915 -79.5135
41.463591 103.983 -79.8566
41.764053 104.049 -80.1983
42.066693 104.115 -80.5383
42.371525 104.182 -80.8764
42.678567 104.251 -81.2132
42.987834 104.323 -81.5504
43.299341 104.398 -81.8886
43.613106 104.473 -82.2272
43.929145 104.547 -82.5636
44.247473 104.619 -82.8953
44.568109 104.689 -83.2231
44.891068 104.759 -83.5533
45.216367 104.830 -83.8958
45.544023 104.903 -84.2582
45.874054 104.981 -84.6384
46.206476 105.065 -85.0197
46.541307 105.156 -85.3744
46.878565 105.258 -85.6747
47.218266 105.371 -85.9085
47.560429 105.496 -86.0890
47.905072 105.627 -86.2524
48.252212 105.754 -86.4428
48.601867 105.867 -86.6926
48.954056 105.953 -87.0106
49.308798 106.010 -87.3836
49.666109 106.038 -87.7874
50.026010 106.046 -88.2022
50.388520 106.046 -88.6209
50.753656 106.048 -89.0473
51.121437 106.059 -89.4859
51.491884 106.083 -89.9321
51.865016 106.119 -90.3703
52.240851 106.166 -90.7816
52.619410 106.222 -91.1557
53.000712 106.287 -91.4966
53.384777 106.358 -91.8201
53.771625 106.432 -92.1437
54.161276 106.509 -92.4764
54.553751 106.585 -92.8150
54.949070 106.662 -93.1483
55.347254 106.738 -93.4644
55.748323 106.815 -93.7584
56.152298 106.891 -94.0352
56.559201 106.965 -94.3079
56.969052 107.034 -94.5931
57.381873 107.098 -94.9047
57.797686 107.155 -95.2499
58.216512 107.208 -95.6273
58.638373 107.258 -96.0289
59.063291 107.308 -96.4434
59.491288 107.361 -96.8606
59.922386 107.418 -97.2735
60.356608 107.480 -97.6781
60.793977 107.544 -98.0722
61.234515 107.610 -98.4541
61.678246 107.675 -98.8228
62.125192 107.739 -99.1789
62.575377 107.802 -99.5252
63.028824 107.863 -99.8666
63.485557 107.923 -100.2089
63.945599 107.982 -100.5583
64.408975 108.040 -100.9198
64.875709 108.099 -101.2947
65.345825 108.157 -101.6800
65.819348 108.214 -102.0682
66.296302 108.272 -102.4505
66.776713 108.329 -102.8213
67.260604 108.386 -103.1801
67.748002 108.442 -103.5315
68.238932 108.498 -103.8822
68.733420 108.554 -104.2382
69.231490 108.609 -104.6030
69.733170 108.665 -104.9770
70.238485 108.722 -105.3585
70.747463 108.779 -105.7447
71.260128 108.835 -106.1342
71.776508 108.891 -106.5266
72.296630 108.946 -106.9213
72.820521 109.000 -107.3159
73.348209 109.052 -107.7063
73.879720 109.103 -108.0898
74.415083 109.155 -108.4667
74.954326 109.206 -108.8402
75.497475 109.258 -109.2145
76.044561 109.309 -109.5918
76.595612 109.361 -109.9729
77.150655 109.413 -110.3570
77.709720 109.467 -110.7427
78.272837 109.522 -111.1286
78.840034 109.576 -111.5139
79.411342 109.631 -111.8994
79.986789 109.684 -112.2861
80.566406 109.736 -112.6734
81.150224 109.787 -113.0595
81.738272 109.836 -113.4426
82.330581 109.886 -113.8241
82.927182 109.935 -114.2078
83.528107 109.985 -114.5968
84.133386 110.033 -114.9914
84.743051 110.081 -115.3893
85.357134 110.129 -115.7879
85.975667 110.176 -116.1859
86.598682 110.222 -116.5839
87.226212 110.268 -116.9826
87.858289 110.313 -117.3804
88.494946 110.357 -117.7746
89.136217 110.399 -118.1640
89.782135 110.441 -118.5513
90.432733 110.482 -118.9423
91.088046 110.524 -119.3417
91.748108 110.567 -119.7509
92.412952 110.609 -120.1673
93.082615 110.653 -120.5871
93.757130 110.697 -121.0072
94.436533 110.741 -121.4264
95.120859 110.786 -121.8443
95.810144 110.831 -122.2597
96.504423 110.876 -122.6704
97.203734 110.921 -123.0746
97.908112 110.965 -123.4728
98.617595 111.008 -123.8682
99.332219 111.050 -124.2660
100.052021 111.091 -124.6703
100.777039 111.130 -125.0826
101.507311 111.168 -125.5015
102.242875 111.205 -125.9245
102.983769 111.240 -126.3491
103.730032 111.275 -126.7737
104.481702 111.310 -127.1974
105.238820 111.345 -127.6208
106.001424 111.380 -128.0444
106.769554 111.416 -128.4675
107.543250 111.452 -128.8870
108.322553 111.487 -129.3006
109.107503 111.521 -129.7085
109.898141 111.554 -130.1141
110.694508 111.587 -130.5219
111.496646 111.618 -130.9351
112.304596 111.649 -131.3539
113.118402 111.680 -131.7758
113.938104 111.711 -132.1980
114.763747 111.741 -132.6186
115.595372 111.770 -133.0368
116.433024 111.799 -133.4529
117.276746 111.828 -133.8677
118.126581 111.855 -134.2825
118.982575 111.882 -134.6980
119.844772 111.909 -135.1148
120.713217 111.936 -135.5338
121.587954 111.963 -135.9564
122.469031 111.990 -136.3835
123.356492 112.017 -136.8144
124.250384 112.044 -137.2462
125.150753 112.070 -137.6749
126.057647 112.096 -138.0973
126.971113 112.121 -138.5124
127.891198 112.145 -138.9216
128.817950 112.169 -139.3280
129.751418 112.191 -139.7348
130.691651 112.213 -140.1423
131.638696 112.235 -140.5497
132.592604 112.256 -140.9572
133.553425 112.277 -141.3668
134.521208 112.297 -141.7802
135.496004 112.317 -142.1970
136.477864 112.336 -142.6150
137.466839 112.354 -143.0324
138.462981 112.371 -143.4486
139.466340 112.387 -143.8630
140.476971 112.404 -144.2747
141.494925 112.422 -144.6810
142.520256 112.440 -145.0802
143.553016 112.458 -145.4741
144.593260 112.475 -145.8689
145.641043 112.489 -146.2692
146.696418 112.501 -146.6748
147.759441 112.513 -147.0828
148.830166 112.524 -147.4919
149.908651 112.536 -147.9032
150.994951 112.548 -148.3183
152.089123 112.560 -148.7367
153.191223 112.571 -149.1549
154.301310 112.582 -149.5689
155.419441 112.592 -149.9766
156.545674 112.602 -150.3787
157.680069 112.611 -150.7771
158.822683 112.620 -151.1740
159.973578 112.628 -151.5697
161.132813 112.635 -151.9640
162.300447 112.642 -152.3563
163.476543 112.649 -152.7472
164.661162 112.655 -153.1380
165.854364 112.661 -153.5294
167.056213 112.666 -153.9210
168.266772 112.671 -154.3120
169.486102 112.676 -154.7022
170.714268 112.680 -155.0913
171.951334 112.684 -155.4791
173.197364 112.687 -155.8653
174.452424 112.690 -156.2496
175.716578 112.692 -156.6319
176.989893 112.693 -157.0123
178.272434 112.695 -157.3910
179.564270 112.695 -157.7683
180.865467 112.696 -158.1443
182.176092 112.696 -158.5187
183.496216 112.695 -158.8914
184.825905 112.694 -159.2634
186.165229 112.693 -159.6353
187.514259 112.691 -160.0070
188.873065 112.688 -160.3785
190.241717 112.685 -160.7495
191.620287 112.681 -161.1192
193.008847 112.677 -161.4858
194.407468 112.673 -161.8476
195.816225 112.669 -162.2042
197.235190 112.664 -162.5574
198.664438 112.659 -162.9101
200.104042 112.653 -163.2645
201.554078 112.645 -163.6208
203.014622 112.638 -163.9771
204.485750 112.629 -164.3314
205.967538 112.621 -164.6821
207.460064 112.612 -165.0288
208.963405 112.603 -165.3712
210.477640 112.593 -165.7097
212.002848 112.583 -166.0443
213.539108 112.572 -166.3752
215.086500 112.560 -166.7028
216.645105 112.549 -167.0274
218.215005 112.536 -167.3485
219.796281 112.524 -167.6650
221.389015 112.511 -167.9764
222.993292 112.499 -168.2834
224.609193 112.486 -168.5873
226.236804 112.472 -168.8894
227.876209 112.459 -169.1902
229.527494 112.445 -169.4899
231.190745 112.432 -169.7887
232.866048 112.418 -170.0869
234.553491 112.405 -170.3843
236.253163 112.391 -170.6803
237.965150 112.378 -170.9743
239.689544 112.363 -171.2657
241.426433 112.349 -171.5544
243.175909 112.334 -171.8409
244.938062 112.318 -172.1265
246.712984 112.302 -172.4130
248.500768 112.285 -172.7015
250.301507 112.268 -172.9920
252.115295 112.251 -173.2836
253.942226 112.234 -173.5745
255.782396 112.215 -173.8629
257.635901 112.196 -174.1477
259.502837 112.176 -174.4284
261.383301 112.156 -174.7056
263.277392 112.135 -174.9802
265.185209 112.113 -175.2523
267.106850 112.090 -175.5217
269.042417 112.067 -175.7869
270.992009 112.042 -176.0462
272.955729 112.017 -176.2975
274.933678 111.991 -176.5397
276.925961 111.965 -176.7725
278.932681 111.938 -176.9965
280.953942 111.911 -177.2123
282.989850 111.885 -177.4209
285.040511 111.859 -177.6229
287.106032 111.833 -177.8195
289.186521 111.808 -178.0118
291.282086 111.784 -178.2008
293.392836 111.760 -178.3871
295.518881 111.736 -178.5708
297.660333 111.712 -178.7512
299.817302 111.687 -178.9267
301.989902 111.663 -179.0950
304.178245 111.639 -179.2550
306.382446 111.615 -179.4066
308.602620 111.591 -179.5506
310.838882 111.568 -179.6879
313.091348 111.546 -179.8190
315.360137 111.525 -179.9432
317.645367 111.505 179.9406
319.947156 111.489 179.8322
322.265625 111.476 179.7289
324.600895 111.467 179.6248
326.953086 111.463 179.5118
329.322323 111.464 179.3801
331.708729 111.468 179.2189
334.112427 111.476 179.0168
336.533543 111.485 178.7648
338.972204 111.492 178.4576
341.428536 111.495 178.0953
343.902668 111.492 177.6828
346.394729 111.481 177.2302
348.904848 111.460 176.7513
351.433156 111.428 176.2630
353.979786 111.384 175.7838
356.544869 111.330 175.3322
359.128540 111.265 174.9252
361.730934 111.192 174.5776
364.352185 111.113 174.3007
366.992431 111.033 174.1011
369.651810 110.953 173.9788
372.330459 110.877 173.9269
375.028519 110.807 173.9335
377.746130 110.744 173.9833
380.483434 110.688 174.0602
383.240574 110.639 174.1492
386.017693 110.597 174.2382
388.814937 110.560 174.3187
391.632450 110.528 174.3856
394.470380 110.500 174.4364
397.328875 110.474 174.4711
400.208084 110.450 174.4913
403.108157 110.427 174.4986
406.029245 110.403 174.4946
408.971500 110.380 174.4807
411.935076 110.357 174.4587
414.920127 110.334 174.4309
417.926810 110.311 174.3999
420.955280 110.287 174.3675
424.005695 110.263 174.3350
427.078215 110.239 174.3026
430.173000 110.215 174.2707
433.290211 110.191 174.2391
436.430010 110.166 174.2081
439.592562 110.142 174.1773
442.778031 110.118 174.1467
445.986583 110.095 174.1163
449.218386 110.071 174.0859
452.473607 110.048 174.0552
455.752418 110.024 174.0239
459.054987 110.001 173.9918
462.381489 109.977 173.9588
465.732096 109.954 173.9249
469.106983 109.930 173.8909
472.506325 109.905 173.8572
475.930301 109.881 173.8241
479.379088 109.857 173.7905
482.852867 109.832 173.7552
486.351817 109.808 173.7173
489.876123 109.783 173.6765
493.425968 109.758 173.6331
497.001536 109.732 173.5885
500.603014 109.706 173.5446
504.230589 109.678 173.5037
507.884452 109.649 173.4684
511.564792 109.619 173.4402
515.271802 109.588 173.4199
519.005673 109.556 173.4072
522.766602 109.524 173.4022
526.554785 109.492 173.4054
530.370418 109.460 173.4167
534.213700 109.429 173.4359
538.084833 109.398 173.4619
541.984018 109.369 173.4932
545.911457 109.341 173.5281
549.867357 109.315 173.5656
553.851922 109.289 173.6047
557.865362 109.265 173.6445
561.907884 109.241 173.6839
565.979700 109.218 173.7223
570.081022 109.194 173.7601
574.212064 109.171 173.7980
578.373042 109.149 173.8366
582.564171 109.126 173.8761
586.785671 109.104 173.9164
591.037762 109.082 173.9567
595.320665 109.060 173.9965
599.634604 109.037 174.0353
603.979804 109.014 174.0734
608.356491 108.990 174.1113
612.764893 108.966 174.1490
617.205240 108.942 174.1874
621.677763 108.917 174.2276
626.182696 108.892 174.2708
630.720274 108.867 174.3171
635.290733 108.841 174.3658
639.894312 108.816 174.4158
644.531250 108.792 174.4663
649.201789 108.767 174.5170
653.906173 108.744 174.5677
658.644647 108.720 174.6179
663.417457 108.697 174.6674
668.224854 108.675 174.7166
673.067086 108.652 174.7664
677.944408 108.629 174.8171
682.857073 108.607 174.8688
687.805336 108.584 174.9218
692.789457 108.562 174.9754
697.809695 108.539 175.0298
702.866312 108.518 175.0854
707.959571 108.496 175.1426
713.089738 108.474 175.2020
718.257080 108.451 175.2640
723.461867 108.428 175.3289
728.704370 108.405 175.3957
733.984862 108.381 175.4625
739.303619 108.358 175.5275
744.660918 108.334 175.5910
750.057038 108.311 175.6545
755.492260 108.287 175.7192
760.966869 108.263 175.7859
766.481148 108.238 175.8546
772.035387 108.213 175.9256
777.629873 108.188 175.9991
783.264900 108.162 176.0753
788.940760 108.136 176.1530
794.657750 108.110 176.2307
800.416168 108.084 176.3073
806.216313 108.058 176.3831
812.058489 108.032 176.4604
817.943000 108.005 176.5413
823.870152 107.978 176.6271
829.840255 107.950 176.7178
835.853619 107.922 176.8129
841.910559 107.894 176.9118
848.011390 107.866 177.0141
854.156430 107.839 177.1191
860.346000 107.812 177.2256
866.580422 107.784 177.3320
872.860020 107.757 177.4371
879.185124 107.729 177.5406
885.556062 107.700 177.6431
891.973166 107.671 177.7456
898.436771 107.640 177.8492
904.947215 107.608 177.9545
911.504835 107.575 178.0630
918.109975 107.540 178.1770
924.762978 107.504 178.2992
931.464192 107.466 178.4322
938.213966 107.427 178.5784
945.012651 107.387 178.7397
951.860602 107.346 178.9174
958.758176 107.305 179.1123
965.705733 107.264 179.3242
972.703635 107.225 179.5512
979.752246 107.186 179.7903
986.851935 107.150 -179.9611
994.003071 107.115 -179.7038
1001.206027 107.082 -179.4380
1008.461179 107.050 -179.1652
1015.768904 107.020 -178.8885
1023.129584 106.991 -178.6102
1030.543603 106.962 -178.3304
1038.011347 106.934 -178.0472
1045.533205 106.907 -177.7593
1053.109569 106.880 -177.4670
1060.740836 106.854 -177.1716
1068.427401 106.829 -176.8744
1076.169666 106.804 -176.5750
1083.968035 106.780 -176.2722
1091.822915 106.756 -175.9652
1099.734713 106.733 -175.6550
1107.703844 106.712 -175.3425
1115.730723 106.690 -175.0283
1123.815768 106.670 -174.7123
1131.959400 106.649 -174.3934
1140.162045 106.629 -174.0698
1148.424129 106.609 -173.7401
1156.746083 106.589 -173.4044
1165.128342 106.570 -173.0646
1173.571343 106.551 -172.7230
1182.075524 106.533 -172.3804
1190.641331 106.516 -172.0364
1199.269209 106.499 -171.6905
1207.959608 106.483 -171.3429
1216.712981 106.468 -170.9939
1225.529785 106.454 -170.6439
1234.410479 106.440 -170.2937
1243.355526 106.426 -169.9442
1252.365393 106.412 -169.5950
1261.440549 106.398 -169.2445
1270.581467 106.384 -168.8914
1279.788624 106.370 -168.5345
1289.062500 106.356 -168.1731
1298.403578 106.341 -167.8063
1307.812346 106.326 -167.4333
1317.289293 106.312 -167.0534
1326.834914 106.297 -166.6660
1336.449707 106.284 -166.2709
1346.134173 106.270 -165.8675
1355.888816 106.258 -165.4561
1365.714145 106.246 -165.0381
1375.610673 106.236 -164.6167
1385.578915 106.227 -164.1947
1395.619391 106.218 -163.7741
1405.732624 106.210 -163.3556
1415.919142 106.202 -162.9377
1426.179476 106.193 -162.5176
1436.514160 106.183 -162.0928
1446.923734 106.172 -161.6615
1457.408740 106.161 -161.2236
1467.969724 106.149 -160.7794
1478.607238 106.136 -160.3277
1489.321836 106.123 -159.8665
1500.114076 106.108 -159.3934
1510.984521 106.094 -158.9068
1521.933737 106.079 -158.4067
1532.962297 106.064 -157.8946
1544.070773 106.050 -157.3711
1555.259747 106.035 -156.8344
1566.529800 106.019 -156.2807
1577.881521 106.003 -155.7055
1589.315501 105.987 -155.1059
1600.832336 105.971 -154.4829
1612.432627 105.956 -153.8391
1624.116978 105.941 -153.1760
1635.886000 105.926 -152.4923
1647.740304 105.911 -151.7848
1659.680509 105.896 -151.0497
1671.707238 105.882 -150.2840
1683.821118 105.869 -149.4860
1696.022780 105.856 -148.6536
1708.312860 105.845 -147.7825
1720.692000 105.835 -146.8663
1733.160843 105.827 -145.8991
1745.720041 105.823 -144.8773
1758.370248 105.823 -143.8013
1771.112124 105.829 -142.6737
1783.946332 105.842 -141.4962
1796.873543 105.861 -140.2691
1809.894429 105.889 -138.9924
1823.009670 105.926 -137.6676
1836.219950 105.972 -136.2983
1849.525956 106.030 -134.8872
1862.928384 106.099 -133.4342
1876.427931 106.180 -131.9385
1890.025301 106.276 -130.4032
1903.721204 106.387 -128.8365
1917.516352 106.516 -127.2479
1931.411466 106.663 -125.6455
1945.407270 106.828 -124.0370
1959.504493 107.015 -122.4356
1973.703870 107.223 -120.8613
1988.006142 107.451 -119.3351
2002.412054 107.700 -117.8757
2016.922357 107.966 -116.4950
2031.537808 108.250 -115.1994
2046.259169 108.549 -113.9956
2061.087206 108.864 -112.8933
2076.022694 109.193 -111.9010
2091.066410 109.535 -111.0230
2106.219139 109.889 -110.2617
2121.481671 110.254 -109.6224
2136.854802 110.630 -109.1162
2152.339333 111.016 -108.7548
2167.936071 111.409 -108.5458
2183.645829 111.808 -108.4951
2199.469427 112.212 -108.6114
2215.407689 112.618 -108.9061
2231.461446 113.024 -109.3870
2247.631536 113.425 -110.0541
2263.918800 113.820 -110.9034
2280.324089 114.205 -111.9324
2296.848258 114.577 -113.1368
2313.492167 114.933 -114.5070
2330.256685 115.271 -116.0292
2347.142685 115.589 -117.6880
2364.151049 115.884 -119.4674
2381.282662 116.156 -121.3479
2398.538418 116.404 -123.3054
2415.919216 116.627 -125.3146
2433.425962 116.827 -127.3528
2451.059570 117.008 -129.4028
2468.820958 117.171 -131.4558
2486.711052 117.320 -133.5126
2504.730786 117.456 -135.5836
2522.881098 117.580 -137.6830
2541.162934 117.690 -139.8218
2559.577248 117.783 -142.0034
2578.125000 117.857 -144.2225
2596.807157 117.910 -146.4674
2615.624692 117.939 -148.7207
2634.578586 117.944 -150.9617
2653.669829 117.926 -153.1705
2672.899414 117.885 -155.3291
2692.268345 117.823 -157.4216
2711.777632 117.741 -159.4336
2731.428290 117.641 -161.3533
2751.221345 117.527 -163.1723
2771.157829 117.400 -164.8865
2791.238781 117.263 -166.4942
2811.465248 117.118 -167.9968
2831.838284 116.968 -169.3988
2852.358952 116.813 -170.7060
2873.028321 116.654 -171.9236
2893.847468 116.493 -173.0569
