* Measurement data measured by REW V5.31.3
* Source: Микрофон (2- HiBy FC3), MICROPHONE (Общая громкость), L, volume: 0,250
* Format: 256k Log Swept Sine, 1 sweep at -12,0 dBFS with no timing reference
* Dated: 10.11.2024 15:49:22
* REW Settings:
*  C-weighting compensation: Off
*  Target level: 75.0 dB
* Note: 
* Measurement: BE NEW
* Smoothing: 1/12 octave
* Frequency Step: 96 ppo
* Start Frequency: 20.141602 Hz
*
* Freq(Hz) SPL(dB) Phase(degrees)
20.141602 64.547 -95.0456
20.287556 64.573 -95.1299
20.434568 64.610 -95.3320
20.582645 64.650 -95.5947
20.731796 64.688 -95.8665
20.882027 64.720 -96.1070
21.033346 64.745 -96.2880
21.185763 64.763 -96.3927
21.339284 64.775 -96.4176
21.493917 64.784 -96.3675
21.649671 64.791 -96.2551
21.806553 64.800 -96.0996
21.964572 64.810 -95.9253
22.123737 64.824 -95.7596
22.284054 64.842 -95.6272
22.445534 64.863 -95.5505
22.608183 64.887 -95.5470
22.772012 64.913 -95.6277
22.937027 64.940 -95.7956
23.103238 64.967 -96.0537
23.270654 64.994 -96.3871
23.439282 65.020 -96.7732
23.609133 65.046 -97.1891
23.780215 65.072 -97.6095
23.952536 65.101 -98.0084
24.126106 65.134 -98.3747
24.300934 65.172 -98.6806
24.477028 65.218 -98.9073
24.654399 65.271 -99.0479
24.833055 65.334 -99.1031
25.013005 65.406 -99.0826
25.194260 65.488 -99.0183
25.376828 65.576 -98.9094
25.560719 65.671 -98.7761
25.745942 65.770 -98.6383
25.932508 65.869 -98.5133
26.120426 65.967 -98.4232
26.309705 66.061 -98.3724
26.500356 66.150 -98.3586
26.692388 66.233 -98.3798
26.885812 66.310 -98.4297
27.080638 66.381 -98.5034
27.276876 66.448 -98.5925
27.474535 66.512 -98.6809
27.673627 66.576 -98.7601
27.874161 66.640 -98.8239
28.076149 66.706 -98.8689
28.279600 66.774 -98.8950
28.484526 66.845 -98.9060
28.690937 66.917 -98.9070
28.898843 66.991 -98.9043
29.108256 67.063 -98.9073
29.319186 67.134 -98.9227
29.531645 67.203 -98.9551
29.745644 67.269 -99.0107
29.961193 67.332 -99.0952
30.178304 67.394 -99.2164
30.396989 67.454 -99.3752
30.617258 67.515 -99.5717
30.839123 67.577 -99.8030
31.062596 67.640 -100.0612
31.287688 67.707 -100.3336
31.514412 67.776 -100.6078
31.742778 67.848 -100.8673
31.972800 67.922 -101.0969
32.204488 67.999 -101.3017
32.437855 68.077 -101.4603
32.672913 68.155 -101.5695
32.909674 68.232 -101.6337
33.148151 68.305 -101.6640
33.388356 68.373 -101.6677
33.630302 68.434 -101.6500
33.874001 68.487 -101.6177
34.119466 68.535 -101.5840
34.366710 68.580 -101.5577
34.615745 68.625 -101.5431
34.866585 68.674 -101.5547
35.119243 68.731 -101.6135
35.373731 68.795 -101.7318
35.630064 68.868 -101.9063
35.888254 68.946 -102.1277
36.148315 69.028 -102.3789
36.410261 69.113 -102.6298
36.674104 69.201 -102.8485
36.939860 69.293 -103.0148
37.207542 69.391 -103.1295
37.477163 69.494 -103.1981
37.748738 69.602 -103.2388
38.022281 69.711 -103.2729
38.297806 69.812 -103.3135
38.575327 69.902 -103.3582
38.854860 69.973 -103.3918
39.136419 70.024 -103.3942
39.420017 70.055 -103.3494
39.705671 70.070 -103.2553
39.993395 70.074 -103.1334
40.283203 70.074 -103.0253
40.575112 70.072 -102.9845
40.869136 70.074 -103.0618
41.165290 70.082 -103.2995
41.463591 70.099 -103.7033
41.764053 70.128 -104.2444
42.066693 70.175 -104.8749
42.371525 70.243 -105.5298
42.678567 70.333 -106.1329
42.987834 70.443 -106.6159
43.299341 70.568 -106.9357
43.613106 70.702 -107.0562
43.929145 70.835 -106.9784
44.247473 70.959 -106.7399
44.568109 71.067 -106.3936
44.891068 71.155 -106.0121
45.216367 71.219 -105.6794
45.544023 71.258 -105.4622
45.874054 71.275 -105.4027
46.206476 71.274 -105.5136
46.541307 71.264 -105.7676
46.878565 71.255 -106.1081
47.218266 71.260 -106.4748
47.560429 71.291 -106.8115
47.905072 71.356 -107.0915
48.252212 71.452 -107.3215
48.601867 71.573 -107.5364
48.954056 71.702 -107.7703
49.308798 71.826 -108.0507
49.666109 71.933 -108.3554
50.026010 72.020 -108.6551
50.388520 72.089 -108.9218
50.753656 72.147 -109.1396
51.121437 72.201 -109.3113
51.491884 72.255 -109.4538
51.865016 72.311 -109.5890
52.240851 72.369 -109.7420
52.619410 72.425 -109.9154
53.000712 72.480 -110.1061
53.384777 72.535 -110.3138
53.771625 72.592 -110.5458
54.161276 72.652 -110.8040
54.553751 72.716 -111.0821
54.949070 72.783 -111.3639
55.347254 72.854 -111.6458
55.748323 72.928 -111.9013
56.152298 73.005 -112.1219
56.559201 73.085 -112.3113
56.969052 73.166 -112.4821
57.381873 73.248 -112.6507
57.797686 73.329 -112.8113
58.216512 73.408 -112.9586
58.638373 73.482 -113.0870
59.063291 73.552 -113.1985
59.491288 73.618 -113.3108
59.922386 73.678 -113.4374
60.356608 73.735 -113.6047
60.793977 73.789 -113.8288
61.234515 73.841 -114.1063
61.678246 73.892 -114.4180
62.125192 73.946 -114.7387
62.575377 74.004 -115.0438
63.028824 74.067 -115.2963
63.485557 74.136 -115.4894
63.945599 74.209 -115.6505
64.408975 74.283 -115.8146
64.875709 74.356 -116.0005
65.345825 74.428 -116.2201
65.819348 74.499 -116.4795
66.296302 74.569 -116.7870
66.776713 74.640 -117.1244
67.260604 74.711 -117.4602
67.748002 74.781 -117.7802
68.238932 74.849 -118.0825
68.733420 74.917 -118.3692
69.231490 74.983 -118.6533
69.733170 75.050 -118.9458
70.238485 75.118 -119.2437
70.747463 75.185 -119.5484
71.260128 75.253 -119.8698
71.776508 75.319 -120.2010
72.296630 75.382 -120.5200
72.820521 75.443 -120.8246
73.348209 75.501 -121.1231
73.879720 75.559 -121.4223
74.415083 75.617 -121.7489
74.954326 75.676 -122.0902
75.497475 75.736 -122.4130
76.044561 75.797 -122.7304
76.595612 75.858 -123.0574
77.150655 75.918 -123.3822
77.709720 75.975 -123.7183
78.272837 76.029 -124.0512
78.840034 76.080 -124.3849
79.411342 76.131 -124.7395
79.986789 76.185 -125.1092
80.566406 76.242 -125.4949
81.150224 76.303 -125.8830
81.738272 76.366 -126.2712
82.330581 76.431 -126.6470
82.927182 76.495 -127.0143
83.528107 76.556 -127.4049
84.133386 76.617 -127.8040
84.743051 76.675 -128.2126
85.357134 76.733 -128.6151
85.975667 76.791 -129.0118
86.598682 76.848 -129.4310
87.226212 76.907 -129.8466
87.858289 76.966 -130.2544
88.494946 77.025 -130.6435
89.136217 77.085 -131.0374
89.782135 77.143 -131.4739
90.432733 77.200 -131.9093
91.088046 77.255 -132.3531
91.748108 77.307 -132.8160
92.412952 77.359 -133.2790
93.082615 77.410 -133.7431
93.757130 77.459 -134.2232
94.436533 77.508 -134.6926
95.120859 77.555 -135.1565
95.810144 77.600 -135.6224
96.504423 77.644 -136.0861
97.203734 77.688 -136.5466
97.908112 77.732 -137.0079
98.617595 77.776 -137.4679
99.332219 77.821 -137.9271
100.052021 77.867 -138.3878
100.777039 77.913 -138.8520
101.507311 77.959 -139.3394
102.242875 78.002 -139.8403
102.983769 78.043 -140.3466
103.730032 78.083 -140.8425
104.481702 78.121 -141.3560
105.238820 78.158 -141.8876
106.001424 78.195 -142.4351
106.769554 78.232 -142.9493
107.543250 78.269 -143.4579
108.322553 78.306 -143.9603
109.107503 78.340 -144.4565
109.898141 78.372 -144.9467
110.694508 78.402 -145.4618
111.496646 78.429 -145.9582
112.304596 78.452 -146.4668
113.118402 78.474 -147.0150
113.938104 78.494 -147.5439
114.763747 78.515 -148.1165
115.595372 78.538 -148.6865
116.433024 78.563 -149.2487
117.276746 78.591 -149.8094
118.126581 78.619 -150.3749
118.982575 78.646 -150.9290
119.844772 78.671 -151.4664
120.713217 78.693 -152.0105
121.587954 78.714 -152.5656
122.469031 78.733 -153.1231
123.356492 78.750 -153.6524
124.250384 78.766 -154.1481
125.150753 78.780 -154.6643
126.057647 78.792 -155.1986
126.971113 78.804 -155.6819
127.891198 78.815 -156.1580
128.817950 78.826 -156.6760
129.751418 78.837 -157.2259
130.691651 78.847 -157.7876
131.638696 78.857 -158.3882
132.592604 78.865 -158.9781
133.553425 78.871 -159.5497
134.521208 78.875 -160.1131
135.496004 78.877 -160.6799
136.477864 78.877 -161.2298
137.466839 78.875 -161.7500
138.462981 78.873 -162.2856
139.466340 78.869 -162.8227
140.476971 78.865 -163.3570
141.494925 78.858 -163.8846
142.520256 78.849 -164.4072
143.553016 78.840 -164.9396
144.593260 78.829 -165.4695
145.641043 78.819 -166.0158
146.696418 78.809 -166.5732
147.759441 78.798 -167.1161
148.830166 78.787 -167.6336
149.908651 78.775 -168.1519
150.994951 78.762 -168.6567
152.089123 78.749 -169.1190
153.191223 78.735 -169.6114
154.301310 78.719 -170.1051
155.419441 78.701 -170.6021
156.545674 78.682 -171.0630
157.680069 78.660 -171.5281
158.822683 78.638 -172.0314
159.973578 78.614 -172.4895
161.132813 78.590 -172.9751
162.300447 78.565 -173.4324
163.476543 78.539 -173.8987
164.661162 78.512 -174.3587
165.854364 78.483 -174.7966
167.056213 78.453 -175.2117
168.266772 78.421 -175.6788
169.486102 78.390 -176.1369
170.714268 78.358 -176.5753
171.951334 78.326 -176.9769
173.197364 78.294 -177.4162
174.452424 78.262 -177.8126
175.716578 78.228 -178.2267
176.989893 78.194 -178.6352
178.272434 78.159 -179.0264
179.564270 78.123 -179.4052
180.865467 78.087 -179.8275
182.176092 78.050 179.8365
183.496216 78.013 179.4297
184.825905 77.974 179.0466
186.165229 77.935 178.6861
187.514259 77.894 178.3193
188.873065 77.853 177.9778
190.241717 77.812 177.6211
191.620287 77.772 177.2429
193.008847 77.731 176.9050
194.407468 77.692 176.5987
195.816225 77.652 176.2720
197.235190 77.613 175.9775
198.664438 77.574 175.6404
200.104042 77.533 175.3478
201.554078 77.490 175.0058
203.014622 77.446 174.7036
204.485750 77.400 174.4395
205.967538 77.354 174.1446
207.460064 77.308 173.8645
208.963405 77.261 173.5701
210.477640 77.213 173.2957
212.002848 77.166 173.0407
213.539108 77.118 172.7649
215.086500 77.070 172.4767
216.645105 77.021 172.2465
218.215005 76.972 171.9699
219.796281 76.922 171.7566
221.389015 76.872 171.5269
222.993292 76.822 171.2780
224.609193 76.770 171.0845
226.236804 76.719 170.8893
227.876209 76.666 170.6771
229.527494 76.612 170.5096
231.190745 76.558 170.3149
232.866048 76.505 170.1024
234.553491 76.451 169.9240
236.253163 76.398 169.7459
237.965150 76.344 169.5448
239.689544 76.290 169.3944
241.426433 76.235 169.2285
243.175909 76.179 169.0615
244.938062 76.122 168.9072
246.712984 76.064 168.7366
248.500768 76.004 168.6103
250.301507 75.943 168.4730
252.115295 75.880 168.3460
253.942226 75.817 168.2025
255.782396 75.753 168.0776
257.635901 75.688 167.9844
259.502837 75.621 167.8470
261.383301 75.554 167.7624
263.277392 75.486 167.6419
265.185209 75.417 167.5518
267.106850 75.347 167.4535
269.042417 75.276 167.3805
270.992009 75.203 167.2821
272.955729 75.127 167.2065
274.933678 75.048 167.1637
276.925961 74.965 167.0902
278.932681 74.879 167.0092
280.953942 74.788 166.9980
282.989850 74.693 166.9593
285.040511 74.592 166.9627
287.106032 74.485 167.0206
289.186521 74.370 167.0751
291.282086 74.246 167.1649
293.392836 74.114 167.3417
295.518881 73.972 167.6143
297.660333 73.821 167.9459
299.817302 73.660 168.4371
301.989902 73.492 169.0805
304.178245 73.320 169.9185
306.382446 73.149 171.0458
308.602620 72.993 172.5270
310.838882 72.871 174.4442
313.091348 72.806 176.7277
315.360137 72.827 179.3753
317.645367 72.954 -177.8170
319.947156 73.192 -175.1757
322.265625 73.527 -173.0536
324.600895 73.923 -171.6292
326.953086 74.338 -171.0469
329.322323 74.731 -171.2834
331.708729 75.073 -172.1353
334.112427 75.346 -173.4086
336.533543 75.547 -174.9919
338.972204 75.680 -176.6651
341.428536 75.753 -178.2592
343.902668 75.778 -179.7262
346.394729 75.765 178.9214
348.904848 75.726 177.7602
351.433156 75.669 176.7440
353.979786 75.601 175.8765
356.544869 75.526 175.1731
359.128540 75.447 174.5663
361.730934 75.368 174.0377
364.352185 75.288 173.5753
366.992431 75.211 173.2570
369.651810 75.135 172.9293
372.330459 75.060 172.7347
375.028519 74.988 172.4749
377.746130 74.918 172.3333
380.483434 74.848 172.1878
383.240574 74.781 172.0705
386.017693 74.714 172.0391
388.814937 74.649 171.9054
391.632450 74.585 171.8696
394.470380 74.523 171.8336
397.328875 74.462 171.8141
400.208084 74.403 171.7943
403.108157 74.346 171.8331
406.029245 74.290 171.8565
408.971500 74.235 171.8975
411.935076 74.181 171.9091
414.920127 74.127 171.9778
417.926810 74.075 172.0310
420.955280 74.023 172.1270
424.005695 73.972 172.1556
427.078215 73.923 172.2762
430.173000 73.874 172.3600
433.290211 73.825 172.4479
436.430010 73.777 172.5731
439.592562 73.729 172.6492
442.778031 73.681 172.7522
445.986583 73.633 172.8547
449.218386 73.586 172.9937
452.473607 73.541 173.1351
455.752418 73.496 173.3124
459.054987 73.452 173.4524
462.381489 73.408 173.5979
465.732096 73.364 173.8028
469.106983 73.321 174.0249
472.506325 73.278 174.1816
475.930301 73.236 174.3529
479.379088 73.195 174.5730
482.852867 73.154 174.7910
486.351817 73.113 175.0105
489.876123 73.072 175.2593
493.425968 73.032 175.4978
497.001536 72.993 175.7800
500.603014 72.955 176.0082
504.230589 72.920 176.3341
507.884452 72.886 176.6892
511.564792 72.855 176.9798
515.271802 72.826 177.2690
519.005673 72.798 177.6802
522.766602 72.774 178.0055
526.554785 72.752 178.4002
530.370418 72.734 178.7336
534.213700 72.720 179.1356
538.084833 72.710 179.4669
541.984018 72.704 179.8248
545.911457 72.702 -179.7984
549.867357 72.703 -179.4850
553.851922 72.706 -179.1793
557.865362 72.713 -178.8629
561.907884 72.721 -178.5851
565.979700 72.730 -178.3039
570.081022 72.740 -178.0979
574.212064 72.750 -177.8992
578.373042 72.760 -177.7095
582.564171 72.769 -177.5334
586.785671 72.777 -177.3978
591.037762 72.783 -177.2248
595.320665 72.788 -177.0895
599.634604 72.790 -176.9532
603.979804 72.789 -176.8572
608.356491 72.785 -176.7942
612.764893 72.780 -176.7047
617.205240 72.774 -176.6102
621.677763 72.767 -176.4802
626.182696 72.758 -176.3977
630.720274 72.748 -176.2821
635.290733 72.735 -176.1667
639.894312 72.719 -176.0137
644.531250 72.702 -175.8974
649.201789 72.683 -175.7904
653.906173 72.664 -175.6803
658.644647 72.645 -175.5213
663.417457 72.626 -175.4019
668.224854 72.608 -175.2808
673.067086 72.590 -175.0868
677.944408 72.573 -174.9277
682.857073 72.556 -174.7327
687.805336 72.538 -174.5461
692.789457 72.519 -174.4163
697.809695 72.499 -174.1323
702.866312 72.479 -173.9654
707.959571 72.459 -173.7402
713.089738 72.439 -173.5640
718.257080 72.420 -173.3569
723.461867 72.401 -173.1663
728.704370 72.382 -172.9496
733.984862 72.363 -172.7242
739.303619 72.344 -172.4997
744.660918 72.326 -172.2368
750.057038 72.308 -171.9981
755.492260 72.289 -171.8024
760.966869 72.271 -171.5031
766.481148 72.252 -171.3298
772.035387 72.233 -171.0959
777.629873 72.214 -170.8132
783.264900 72.195 -170.5464
788.940760 72.176 -170.3538
794.657750 72.158 -170.0434
800.416168 72.140 -169.8092
806.216313 72.122 -169.5204
812.058489 72.105 -169.2459
817.943000 72.088 -168.9876
823.870152 72.071 -168.7169
829.840255 72.053 -168.3994
835.853619 72.036 -168.1370
841.910559 72.019 -167.8999
848.011390 72.001 -167.5579
854.156430 71.984 -167.3473
860.346000 71.966 -166.9975
866.580422 71.948 -166.6933
872.860020 71.930 -166.4184
879.185124 71.911 -166.0582
885.556062 71.892 -165.8039
891.973166 71.873 -165.4996
898.436771 71.854 -165.2218
904.947215 71.836 -164.9667
911.504835 71.817 -164.6070
918.109975 71.799 -164.3188
924.762978 71.779 -163.9896
931.464192 71.759 -163.6441
938.213966 71.739 -163.3514
945.012651 71.717 -163.0073
951.860602 71.695 -162.6878
958.758176 71.671 -162.3371
965.705733 71.646 -162.0155
972.703635 71.621 -161.6438
979.752246 71.595 -161.3352
986.851935 71.567 -160.9819
994.003071 71.539 -160.6123
1001.206027 71.510 -160.2706
1008.461179 71.480 -159.8418
1015.768904 71.450 -159.4891
1023.129584 71.419 -159.0804
1030.543603 71.388 -158.6745
1038.011347 71.356 -158.1900
1045.533205 71.325 -157.7726
1053.109569 71.293 -157.2731
1060.740836 71.261 -156.8145
1068.427401 71.231 -156.3180
1076.169666 71.202 -155.7647
1083.968035 71.177 -155.2825
1091.822915 71.154 -154.7073
1099.734713 71.134 -154.2772
1107.703844 71.117 -153.7049
1115.730723 71.102 -153.1588
1123.815768 71.088 -152.5870
1131.959400 71.076 -152.0425
1140.162045 71.064 -151.5176
1148.424129 71.052 -150.8973
1156.746083 71.040 -150.4029
1165.128342 71.028 -149.8360
1173.571343 71.016 -149.2184
1182.075524 71.004 -148.5732
1190.641331 70.994 -148.0009
1199.269209 70.984 -147.4098
1207.959608 70.977 -146.8037
1216.712981 70.971 -146.1674
1225.529785 70.967 -145.5061
1234.410479 70.966 -144.9478
1243.355526 70.966 -144.3235
1252.365393 70.968 -143.6296
1261.440549 70.970 -142.9996
1270.581467 70.973 -142.3906
1279.788624 70.977 -141.7028
1289.062500 70.983 -141.0163
1298.403578 70.990 -140.3542
1307.812346 70.999 -139.7062
1317.289293 71.008 -139.0421
1326.834914 71.017 -138.3135
1336.449707 71.028 -137.6193
1346.134173 71.040 -136.9145
1355.888816 71.054 -136.2071
1365.714145 71.071 -135.5324
1375.610673 71.090 -134.7771
1385.578915 71.110 -134.0712
1395.619391 71.132 -133.3497
1405.732624 71.154 -132.6686
1415.919142 71.178 -131.8642
1426.179476 71.203 -131.1958
1436.514160 71.229 -130.4264
1446.923734 71.255 -129.6956
1457.408740 71.280 -128.8589
1467.969724 71.305 -128.0482
1478.607238 71.331 -127.3480
1489.321836 71.357 -126.5645
1500.114076 71.386 -125.6970
1510.984521 71.417 -124.7303
1521.933737 71.451 -123.7994
1532.962297 71.488 -122.9093
1544.070773 71.529 -121.9533
1555.259747 71.571 -121.0765
1566.529800 71.616 -120.1367
1577.881521 71.665 -119.1228
1589.315501 71.717 -118.1506
1600.832336 71.773 -117.0854
1612.432627 71.834 -115.9713
1624.116978 71.900 -115.0058
1635.886000 71.971 -113.8014
1647.740304 72.047 -112.7396
1659.680509 72.130 -111.5183
1671.707238 72.219 -110.4736
1683.821118 72.315 -109.2237
1696.022780 72.418 -108.1229
1708.312860 72.526 -106.8567
1720.692000 72.642 -105.5686
1733.160843 72.766 -104.3874
1745.720041 72.899 -103.1061
1758.370248 73.041 -101.8998
1771.112124 73.193 -100.5983
1783.946332 73.354 -99.3721
1796.873543 73.526 -98.1469
1809.894429 73.709 -96.9364
1823.009670 73.904 -95.6901
1836.219950 74.111 -94.4915
1849.525956 74.328 -93.3892
1862.928384 74.556 -92.3074
1876.427931 74.795 -91.2007
1890.025301 75.044 -90.1428
1903.721204 75.304 -89.2405
1917.516352 75.572 -88.2846
1931.411466 75.848 -87.5471
1945.407270 76.130 -86.7732
1959.504493 76.418 -86.1454
1973.703870 76.712 -85.5057
1988.006142 77.010 -85.0098
2002.412054 77.311 -84.6303
2016.922357 77.614 -84.3039
2031.537808 77.920 -83.9399
2046.259169 78.227 -83.9044
2061.087206 78.535 -83.5473
2076.022694 78.842 -83.5721
2091.066410 79.149 -83.5085
2106.219139 79.457 -83.6813
2121.481671 79.765 -83.6957
2136.854802 80.074 -83.9400
2152.339333 80.384 -84.2146
2167.936071 80.696 -84.5888
2183.645829 81.009 -84.9403
2199.469427 81.323 -85.4534
2215.407689 81.638 -86.0061
2231.461446 81.951 -86.6676
2247.631536 82.264 -87.4038
2263.918800 82.573 -88.3373
2280.324089 82.878 -89.2206
2296.848258 83.178 -90.2730
2313.492167 83.471 -91.4511
2330.256685 83.756 -92.6421
2347.142685 84.033 -94.0231
2364.151049 84.300 -95.4214
2381.282662 84.555 -97.0378
2398.538418 84.798 -98.6006
2415.919216 85.028 -100.2617
2433.425962 85.242 -102.0426
2451.059570 85.441 -103.9128
2468.820958 85.623 -105.8415
2486.711052 85.787 -107.7474
2504.730786 85.933 -109.7186
2522.881098 86.060 -111.8310
2541.162934 86.167 -113.8624
2559.577248 86.256 -115.8908
2578.125000 86.327 -117.8996
2596.807157 86.379 -120.0336
2615.624692 86.414 -121.9660
2634.578586 86.431 -124.0306
2653.669829 86.433 -125.9455
2672.899414 86.419 -127.9060
2692.268345 86.390 -129.7805
2711.777632 86.348 -131.6509
2731.428290 86.294 -133.2986
2751.221345 86.227 -135.0504
2771.157829 86.149 -136.6099
2791.238781 86.061 -138.2159
2811.465248 85.963 -139.7381
2831.838284 85.857 -141.2316
2852.358952 85.744 -142.5066
2873.028321 85.625 -143.7635
2893.847468 85.502 -145.0878
2914.817480 85.374 -146.2221
2935.939449 85.243 -147.3094
2957.214476 85.110 -148.2597
2978.643672 84.974 -149.2757
3000.228152 84.835 -150.1881
3021.969041 84.694 -151.1314
3043.867475 84.550 -151.8910
3065.924593 84.405 -152.6205
3088.141547 84.258 -153.1961
3110.519493 84.109 -153.9705
3133.059600 83.959 -154.4730
3155.763041 83.808 -154.9557
3178.631001 83.657 -155.3883
3201.664672 83.507 -155.9074
3224.865254 83.358 -156.1833
3248.233957 83.210 -156.5831
3271.771999 83.065 -156.8320
3295.480608 82.923 -157.0586
3319.361019 82.783 -157.2604
