* Measurement data measured by REW V5.31.3
* Source: Input device not selected, no input selected, L, volume: no control
* Format: 256k Log Swept Sine, 1 sweep at -20,0 dBFS with no timing reference
* Dated: 02.02.2025 18:46:10
* REW Settings:
*  C-weighting compensation: Off
*  Target level: 75.0 dB
* Note: 
* Measurement: bio closed
* Smoothing: 1/12 octave
* Frequency Step: 96 ppo
* Start Frequency: 20.141602 Hz
*
* Freq(Hz) SPL(dB) Phase(degrees)
20.141602 80.295 -76.9962
20.287556 80.314 -76.7456
20.434568 80.343 -76.3669
20.582645 80.384 -75.8948
20.731796 80.438 -75.3775
20.882027 80.505 -74.8742
21.033346 80.584 -74.4479
21.185763 80.674 -74.1574
21.339284 80.768 -74.0492
21.493917 80.862 -74.1504
21.649671 80.948 -74.4658
21.806553 81.021 -74.9782
21.964572 81.075 -75.6497
22.123737 81.109 -76.4277
22.284054 81.120 -77.2490
22.445534 81.112 -78.0473
22.608183 81.089 -78.7595
22.772012 81.057 -79.3325
22.937027 81.026 -79.7304
23.103238 81.003 -79.9390
23.270654 80.997 -79.9690
23.439282 81.013 -79.8543
23.609133 81.053 -79.6462
23.780215 81.115 -79.4035
23.952536 81.193 -79.1823
24.126106 81.281 -79.0263
24.300934 81.369 -78.9617
24.477028 81.450 -78.9973
24.654399 81.519 -79.1267
24.833055 81.574 -79.3353
25.013005 81.614 -79.6058
25.194260 81.642 -79.9252
25.376828 81.663 -80.2887
25.560719 81.683 -80.7018
25.745942 81.707 -81.1788
25.932508 81.736 -81.7379
26.120426 81.773 -82.3949
26.309705 81.815 -83.1550
26.500356 81.858 -84.0069
26.692388 81.897 -84.9197
26.885812 81.929 -85.8427
27.080638 81.951 -86.7102
27.276876 81.962 -87.4477
27.474535 81.967 -87.9824
27.673627 81.972 -88.2541
27.874161 81.989 -88.2280
28.076149 82.026 -87.9044
28.279600 82.095 -87.3247
28.484526 82.201 -86.5686
28.690937 82.345 -85.7421
28.898843 82.522 -84.9577
29.108256 82.721 -84.3143
29.319186 82.928 -83.8819
29.531645 83.129 -83.6955
29.745644 83.313 -83.7563
29.961193 83.471 -84.0389
30.178304 83.596 -84.4990
30.396989 83.688 -85.0817
30.617258 83.747 -85.7276
30.839123 83.779 -86.3787
31.062596 83.790 -86.9831
31.287688 83.791 -87.4998
31.514412 83.792 -87.9032
31.742778 83.801 -88.1852
31.972800 83.827 -88.3554
32.204488 83.874 -88.4376
32.437855 83.941 -88.4626
32.672913 84.025 -88.4594
32.909674 84.119 -88.4473
33.148151 84.216 -88.4323
33.388356 84.308 -88.4073
33.630302 84.390 -88.3576
33.874001 84.461 -88.2687
34.119466 84.522 -88.1349
34.366710 84.576 -87.9656
34.615745 84.628 -87.7876
34.866585 84.683 -87.6414
35.119243 84.744 -87.5733
35.373731 84.814 -87.6243
35.630064 84.892 -87.8196
35.888254 84.978 -88.1618
36.148315 85.071 -88.6292
36.410261 85.169 -89.1783
36.674104 85.271 -89.7517
36.939860 85.375 -90.2859
37.207542 85.477 -90.7210
37.477163 85.575 -91.0094
37.748738 85.667 -91.1222
38.022281 85.748 -91.0535
38.297806 85.818 -90.8220
38.575327 85.875 -90.4693
38.854860 85.918 -90.0540
39.136419 85.949 -89.6437
39.420017 85.968 -89.3037
39.705671 85.978 -89.0865
39.993395 85.983 -89.0225
40.283203 85.989 -89.1154
40.575112 85.999 -89.3417
40.869136 86.021 -89.6567
41.165290 86.058 -90.0055
41.463591 86.113 -90.3359
41.764053 86.186 -90.6123
42.066693 86.276 -90.8242
42.371525 86.379 -90.9875
42.678567 86.488 -91.1378
42.987834 86.600 -91.3182
43.299341 86.707 -91.5674
43.613106 86.807 -91.9107
43.929145 86.896 -92.3567
44.247473 86.973 -92.8969
44.568109 87.035 -93.5079
44.891068 87.082 -94.1545
45.216367 87.114 -94.7968
45.544023 87.138 -95.4063
45.874054 87.167 -95.9894
46.206476 87.220 -96.6108
46.541307 87.314 -97.3956
46.878565 87.453 -98.4901
47.218266 87.623 -99.9852
47.560429 87.794 -101.8390
47.905072 87.931 -103.8452
48.252212 88.008 -105.6660
48.601867 88.020 -106.9158
48.954056 87.985 -107.2773
49.308798 87.939 -106.6273
49.666109 87.923 -105.1274
50.026010 87.957 -103.1949
50.388520 88.030 -101.3237
50.753656 88.115 -99.8665
51.121437 88.183 -98.9389
51.491884 88.223 -98.4713
51.865016 88.246 -98.3206
52.240851 88.270 -98.3567
52.619410 88.310 -98.4920
53.000712 88.369 -98.6684
53.384777 88.440 -98.8365
53.771625 88.513 -98.9568
54.161276 88.582 -99.0180
54.553751 88.645 -99.0508
54.949070 88.704 -99.1151
55.347254 88.759 -99.2655
55.748323 88.811 -99.5192
56.152298 88.861 -99.8492
56.559201 88.916 -100.2038
56.969052 88.980 -100.5364
57.381873 89.054 -100.8246
57.797686 89.137 -101.0688
58.216512 89.224 -101.2796
58.638373 89.311 -101.4645
59.063291 89.398 -101.6244
59.491288 89.485 -101.7574
59.922386 89.574 -101.8622
60.356608 89.665 -101.9396
60.793977 89.754 -101.9887
61.234515 89.836 -102.0061
61.678246 89.908 -101.9919
62.125192 89.971 -101.9600
62.575377 90.029 -101.9453
63.028824 90.087 -101.9957
63.485557 90.149 -102.1487
63.945599 90.215 -102.4081
64.408975 90.285 -102.7383
64.875709 90.356 -103.0828
65.345825 90.428 -103.3964
65.819348 90.500 -103.6683
66.296302 90.567 -103.9220
66.776713 90.628 -104.1951
67.260604 90.680 -104.5121
67.748002 90.724 -104.8663
68.238932 90.765 -105.2199
68.733420 90.807 -105.5215
69.231490 90.856 -105.7333
69.733170 90.914 -105.8525
70.238485 90.979 -105.9149
70.747463 91.047 -105.9779
71.260128 91.114 -106.0945
71.776508 91.178 -106.2958
72.296630 91.241 -106.5851
72.820521 91.306 -106.9434
73.348209 91.375 -107.3359
73.879720 91.447 -107.7220
74.415083 91.521 -108.0680
74.954326 91.595 -108.3626
75.497475 91.665 -108.6221
76.044561 91.730 -108.8802
76.595612 91.789 -109.1680
77.150655 91.842 -109.4961
77.709720 91.892 -109.8516
78.272837 91.944 -110.2064
78.840034 92.000 -110.5314
79.411342 92.057 -110.8096
79.986789 92.113 -111.0409
80.566406 92.165 -111.2410
81.150224 92.214 -111.4335
81.738272 92.263 -111.6428
82.330581 92.319 -111.8840
82.927182 92.388 -112.1554
83.528107 92.469 -112.4381
84.133386 92.561 -112.7068
84.743051 92.657 -112.9453
85.357134 92.751 -113.1554
85.975667 92.837 -113.3536
86.598682 92.911 -113.5611
87.226212 92.973 -113.7962
87.858289 93.026 -114.0711
88.494946 93.076 -114.3943
89.136217 93.128 -114.7708
89.782135 93.188 -115.1953
90.432733 93.254 -115.6451
91.088046 93.325 -116.0833
91.748108 93.396 -116.4741
92.412952 93.464 -116.7995
93.082615 93.529 -117.0674
93.757130 93.589 -117.3064
94.436533 93.646 -117.5508
95.120859 93.702 -117.8232
95.810144 93.760 -118.1296
96.504423 93.820 -118.4632
97.203734 93.884 -118.8101
97.908112 93.948 -119.1556
98.617595 94.013 -119.4925
99.332219 94.077 -119.8259
100.052021 94.139 -120.1707
100.777039 94.199 -120.5426
101.507311 94.256 -120.9497
102.242875 94.310 -121.3819
102.983769 94.363 -121.8094
103.730032 94.415 -122.1977
104.481702 94.467 -122.5324
105.238820 94.516 -122.8323
106.001424 94.561 -123.1377
106.769554 94.604 -123.4819
107.543250 94.648 -123.8719
108.322553 94.695 -124.2944
109.107503 94.748 -124.7338
109.898141 94.805 -125.1812
110.694508 94.864 -125.6305
111.496646 94.920 -126.0733
112.304596 94.971 -126.5001
113.118402 95.017 -126.9065
113.938104 95.060 -127.2968
114.763747 95.104 -127.6833
115.595372 95.153 -128.0832
116.433024 95.206 -128.5112
117.276746 95.263 -128.9708
118.126581 95.319 -129.4519
118.982575 95.371 -129.9364
119.844772 95.415 -130.4116
120.713217 95.455 -130.8746
121.587954 95.492 -131.3254
122.469031 95.529 -131.7611
123.356492 95.569 -132.1788
124.250384 95.611 -132.5802
125.150753 95.655 -132.9733
126.057647 95.700 -133.3683
126.971113 95.744 -133.7687
127.891198 95.784 -134.1701
128.817950 95.818 -134.5690
129.751418 95.847 -134.9677
130.691651 95.874 -135.3701
131.638696 95.903 -135.7767
132.592604 95.936 -136.1888
133.553425 95.972 -136.6154
134.521208 96.012 -137.0662
135.496004 96.054 -137.5397
136.477864 96.098 -138.0219
137.466839 96.143 -138.4965
138.462981 96.184 -138.9584
139.466340 96.217 -139.4140
140.476971 96.240 -139.8746
141.494925 96.249 -140.3553
142.520256 96.249 -140.8729
143.553016 96.245 -141.4344
144.593260 96.249 -142.0285
145.641043 96.267 -142.6331
146.696418 96.296 -143.2250
147.759441 96.331 -143.7879
148.830166 96.363 -144.3142
149.908651 96.389 -144.8020
150.994951 96.408 -145.2553
152.089123 96.424 -145.6844
153.191223 96.438 -146.0999
154.301310 96.453 -146.5080
155.419441 96.469 -146.9143
156.545674 96.485 -147.3262
157.680069 96.498 -147.7529
158.822683 96.508 -148.1999
159.973578 96.516 -148.6651
161.132813 96.522 -149.1387
162.300447 96.527 -149.6091
163.476543 96.532 -150.0691
164.661162 96.538 -150.5184
165.854364 96.544 -150.9639
167.056213 96.553 -151.4133
168.266772 96.562 -151.8691
169.486102 96.570 -152.3284
170.714268 96.576 -152.7867
171.951334 96.581 -153.2401
173.197364 96.583 -153.6859
174.452424 96.585 -154.1248
175.716578 96.586 -154.5588
176.989893 96.587 -154.9895
178.272434 96.588 -155.4172
179.564270 96.588 -155.8411
180.865467 96.586 -156.2605
182.176092 96.583 -156.6768
183.496216 96.578 -157.0944
184.825905 96.571 -157.5166
186.165229 96.561 -157.9416
187.514259 96.551 -158.3630
188.873065 96.540 -158.7747
190.241717 96.530 -159.1737
191.620287 96.520 -159.5599
193.008847 96.511 -159.9359
194.407468 96.502 -160.3064
195.816225 96.493 -160.6760
197.235190 96.483 -161.0464
198.664438 96.472 -161.4176
200.104042 96.458 -161.7906
201.554078 96.444 -162.1684
203.014622 96.429 -162.5526
204.485750 96.415 -162.9427
205.967538 96.402 -163.3349
207.460064 96.390 -163.7231
208.963405 96.377 -164.1007
210.477640 96.363 -164.4632
212.002848 96.346 -164.8098
213.539108 96.327 -165.1442
215.086500 96.305 -165.4721
216.645105 96.281 -165.7978
218.215005 96.256 -166.1241
219.796281 96.230 -166.4523
221.389015 96.204 -166.7819
222.993292 96.180 -167.1105
224.609193 96.156 -167.4338
226.236804 96.133 -167.7486
227.876209 96.110 -168.0542
229.527494 96.087 -168.3527
231.190745 96.065 -168.6456
232.866048 96.041 -168.9306
234.553491 96.017 -169.2016
236.253163 95.993 -169.4559
237.965150 95.968 -169.6962
239.689544 95.943 -169.9256
241.426433 95.918 -170.1457
243.175909 95.895 -170.3578
244.938062 95.872 -170.5662
246.712984 95.850 -170.7789
248.500768 95.828 -171.0056
250.301507 95.804 -171.2516
252.115295 95.780 -171.5144
253.942226 95.755 -171.7867
255.782396 95.730 -172.0604
257.635901 95.704 -172.3284
259.502837 95.676 -172.5849
261.383301 95.648 -172.8259
263.277392 95.620 -173.0509
265.185209 95.592 -173.2644
267.106850 95.565 -173.4717
269.042417 95.539 -173.6778
270.992009 95.512 -173.8851
272.955729 95.485 -174.0899
274.933678 95.458 -174.2872
276.925961 95.432 -174.4751
278.932681 95.408 -174.6543
280.953942 95.384 -174.8295
282.989850 95.361 -175.0124
285.040511 95.335 -175.2182
287.106032 95.307 -175.4561
289.186521 95.275 -175.7189
291.282086 95.238 -175.9840
293.392836 95.200 -176.2273
295.518881 95.159 -176.4381
297.660333 95.117 -176.6197
299.817302 95.076 -176.7823
301.989902 95.036 -176.9352
304.178245 94.996 -177.0786
306.382446 94.955 -177.2036
308.602620 94.913 -177.3022
310.838882 94.868 -177.3741
313.091348 94.822 -177.4268
315.360137 94.776 -177.4673
317.645367 94.731 -177.4999
319.947156 94.691 -177.5267
322.265625 94.655 -177.5445
324.600895 94.624 -177.5495
326.953086 94.597 -177.5467
329.322323 94.575 -177.5524
331.708729 94.558 -177.5873
334.112427 94.542 -177.6638
336.533543 94.526 -177.7789
338.972204 94.509 -177.9163
341.428536 94.489 -178.0530
343.902668 94.468 -178.1672
346.394729 94.447 -178.2533
348.904848 94.426 -178.3208
351.433156 94.408 -178.3781
353.979786 94.391 -178.4274
356.544869 94.374 -178.4721
359.128540 94.355 -178.5267
361.730934 94.333 -178.6096
364.352185 94.307 -178.7284
366.992431 94.279 -178.8749
369.651810 94.250 -179.0301
372.330459 94.221 -179.1677
375.028519 94.194 -179.2677
377.746130 94.164 -179.3345
380.483434 94.131 -179.3937
383.240574 94.092 -179.4673
386.017693 94.049 -179.5576
388.814937 94.003 -179.6496
391.632450 93.954 -179.7207
394.470380 93.904 -179.7487
397.328875 93.851 -179.7193
400.208084 93.797 -179.6326
403.108157 93.743 -179.5069
406.029245 93.688 -179.3635
408.971500 93.635 -179.2133
411.935076 93.584 -179.0644
414.920127 93.540 -178.9213
417.926810 93.506 -178.7753
420.955280 93.482 -178.6126
424.005695 93.466 -178.4342
427.078215 93.454 -178.2661
430.173000 93.444 -178.1486
433.290211 93.431 -178.1092
436.430010 93.417 -178.1404
439.592562 93.402 -178.2001
442.778031 93.386 -178.2247
445.986583 93.365 -178.1511
449.218386 93.338 -177.9590
452.473607 93.308 -177.6829
455.752418 93.278 -177.3764
459.054987 93.251 -177.0913
462.381489 93.226 -176.8613
465.732096 93.204 -176.6898
469.106983 93.181 -176.5580
472.506325 93.158 -176.4425
475.930301 93.136 -176.3296
479.379088 93.114 -176.2149
482.852867 93.093 -176.1007
486.351817 93.072 -175.9938
489.876123 93.050 -175.8992
493.425968 93.026 -175.8186
497.001536 93.003 -175.7531
500.603014 92.984 -175.6985
504.230589 92.970 -175.6402
507.884452 92.961 -175.5608
511.564792 92.957 -175.4504
515.271802 92.956 -175.3092
519.005673 92.957 -175.1482
522.766602 92.960 -174.9845
526.554785 92.962 -174.8289
530.370418 92.963 -174.6783
534.213700 92.960 -174.5223
538.084833 92.951 -174.3583
541.984018 92.937 -174.1946
545.911457 92.916 -174.0441
549.867357 92.890 -173.9142
553.851922 92.865 -173.8055
557.865362 92.849 -173.7108
561.907884 92.850 -173.6121
565.979700 92.866 -173.4964
570.081022 92.889 -173.3724
574.212064 92.912 -173.2602
578.373042 92.934 -173.1741
582.564171 92.954 -173.1142
586.785671 92.971 -173.0748
591.037762 92.986 -173.0535
595.320665 92.996 -173.0483
599.634604 93.000 -173.0490
603.979804 92.995 -173.0414
608.356491 92.982 -173.0257
612.764893 92.964 -173.0206
617.205240 92.945 -173.0460
621.677763 92.927 -173.1034
626.182696 92.909 -173.1723
630.720274 92.890 -173.2219
635.290733 92.870 -173.2285
639.894312 92.850 -173.1845
644.531250 92.830 -173.1005
649.201789 92.811 -172.9986
653.906173 92.792 -172.8997
658.644647 92.772 -172.8147
663.417457 92.753 -172.7424
668.224854 92.734 -172.6780
673.067086 92.716 -172.6208
677.944408 92.702 -172.5694
682.857073 92.693 -172.5150
687.805336 92.688 -172.4434
692.789457 92.686 -172.3474
697.809695 92.681 -172.2332
702.866312 92.673 -172.1129
707.959571 92.659 -171.9901
713.089738 92.639 -171.8574
718.257080 92.613 -171.7111
723.461867 92.583 -171.5643
728.704370 92.553 -171.4370
733.984862 92.525 -171.3406
739.303619 92.503 -171.2770
744.660918 92.488 -171.2474
750.057038 92.479 -171.2585
755.492260 92.473 -171.3022
760.966869 92.468 -171.3257
766.481148 92.460 -171.2555
772.035387 92.446 -171.0607
777.629873 92.424 -170.7768
783.264900 92.398 -170.4691
788.940760 92.370 -170.1867
794.657750 92.341 -169.9424
800.416168 92.311 -169.7229
806.216313 92.282 -169.5070
812.058489 92.256 -169.2841
817.943000 92.236 -169.0605
823.870152 92.225 -168.8515
829.840255 92.222 -168.6739
835.853619 92.225 -168.5365
841.910559 92.230 -168.4294
848.011390 92.231 -168.3310
854.156430 92.227 -168.2242
860.346000 92.214 -168.1028
866.580422 92.195 -167.9664
872.860020 92.169 -167.8078
879.185124 92.135 -167.6109
885.556062 92.095 -167.3675
891.973166 92.052 -167.0910
898.436771 92.010 -166.8182
904.947215 91.973 -166.5905
911.504835 91.945 -166.4288
918.109975 91.927 -166.3209
924.762978 91.914 -166.2270
931.464192 91.901 -166.1049
938.213966 91.883 -165.9388
945.012651 91.860 -165.7415
951.860602 91.834 -165.5322
958.758176 91.809 -165.3212
965.705733 91.783 -165.1027
972.703635 91.757 -164.8596
979.752246 91.730 -164.5780
986.851935 91.702 -164.2618
994.003071 91.673 -163.9282
1001.206027 91.644 -163.5924
1008.461179 91.615 -163.2607
1015.768904 91.588 -162.9341
1023.129584 91.562 -162.6133
1030.543603 91.535 -162.3029
1038.011347 91.508 -162.0083
1045.533205 91.482 -161.7335
1053.109569 91.459 -161.4807
1060.740836 91.441 -161.2401
1068.427401 91.428 -160.9954
1076.169666 91.416 -160.7327
1083.968035 91.404 -160.4445
1091.822915 91.389 -160.1275
1099.734713 91.372 -159.7808
1107.703844 91.355 -159.4066
1115.730723 91.338 -159.0076
1123.815768 91.324 -158.5895
1131.959400 91.309 -158.1661
1140.162045 91.294 -157.7569
1148.424129 91.276 -157.3719
1156.746083 91.257 -157.0010
1165.128342 91.233 -156.6244
1173.571343 91.205 -156.2281
1182.075524 91.177 -155.8147
1190.641331 91.152 -155.3951
1199.269209 91.129 -154.9760
1207.959608 91.105 -154.5517
1216.712981 91.080 -154.1055
1225.529785 91.052 -153.6263
1234.410479 91.025 -153.1163
1243.355526 91.000 -152.5843
1252.365393 90.977 -152.0388
1261.440549 90.955 -151.4853
1270.581467 90.935 -150.9286
1279.788624 90.917 -150.3720
1289.062500 90.903 -149.8169
1298.403578 90.892 -149.2651
1307.812346 90.885 -148.7177
1317.289293 90.880 -148.1730
1326.834914 90.876 -147.6283
1336.449707 90.869 -147.0819
1346.134173 90.858 -146.5274
1355.888816 90.843 -145.9502
1365.714145 90.828 -145.3382
1375.610673 90.814 -144.6898
1385.578915 90.804 -144.0095
1395.619391 90.795 -143.3036
1405.732624 90.789 -142.5804
1415.919142 90.784 -141.8498
1426.179476 90.779 -141.1200
1436.514160 90.774 -140.3915
1446.923734 90.766 -139.6556
1457.408740 90.757 -138.8988
1467.969724 90.747 -138.1086
1478.607238 90.736 -137.2732
1489.321836 90.723 -136.3840
1500.114076 90.711 -135.4448
1510.984521 90.702 -134.4697
1521.933737 90.697 -133.4694
1532.962297 90.698 -132.4469
1544.070773 90.706 -131.3997
1555.259747 90.719 -130.3255
1566.529800 90.736 -129.2270
1577.881521 90.758 -128.1078
1589.315501 90.783 -126.9662
1600.832336 90.810 -125.7974
1612.432627 90.840 -124.5992
1624.116978 90.873 -123.3735
1635.886000 90.910 -122.1224
1647.740304 90.955 -120.8451
1659.680509 91.008 -119.5325
1671.707238 91.072 -118.1697
1683.821118 91.146 -116.7499
1696.022780 91.231 -115.2786
1708.312860 91.326 -113.7683
1720.692000 91.430 -112.2284
1733.160843 91.543 -110.6643
1745.720041 91.665 -109.0841
1758.370248 91.796 -107.4957
1771.112124 91.938 -105.9016
1783.946332 92.093 -104.2984
1796.873543 92.263 -102.6843
1809.894429 92.449 -101.0673
1823.009670 92.652 -99.4604
1836.219950 92.871 -97.8715
1849.525956 93.105 -96.3026
1862.928384 93.354 -94.7542
1876.427931 93.621 -93.2284
1890.025301 93.908 -91.7351
1903.721204 94.216 -90.2968
1917.516352 94.544 -88.9409
1931.411466 94.892 -87.6806
1945.407270 95.256 -86.5155
1959.504493 95.636 -85.4479
1973.703870 96.030 -84.4876
1988.006142 96.437 -83.6488
2002.412054 96.854 -82.9434
2016.922357 97.281 -82.3770
2031.537808 97.715 -81.9540
2046.259169 98.155 -81.6817
2061.087206 98.599 -81.5674
2076.022694 99.045 -81.6149
2091.066410 99.493 -81.8236
2106.219139 99.941 -82.1890
2121.481671 100.388 -82.7079
2136.854802 100.832 -83.3794
2152.339333 101.271 -84.1991
2167.936071 101.704 -85.1587
2183.645829 102.127 -86.2551
2199.469427 102.542 -87.4925
2215.407689 102.947 -88.8738
2231.461446 103.341 -90.3953
2247.631536 103.724 -92.0493
2263.918800 104.094 -93.8295
2280.324089 104.451 -95.7310
2296.848258 104.792 -97.7508
2313.492167 105.116 -99.8873
2330.256685 105.422 -102.1388
2347.142685 105.709 -104.5005
2364.151049 105.974 -106.9637
2381.282662 106.216 -109.5167
2398.538418 106.432 -112.1466
2415.919216 106.623 -114.8395
2433.425962 106.787 -117.5772
2451.059570 106.924 -120.3394
2468.820958 107.033 -123.1071
2486.711052 107.117 -125.8653
2504.730786 107.174 -128.6000
2522.881098 107.207 -131.2979
2541.162934 107.216 -133.9472
2559.577248 107.204 -136.5394
2578.125000 107.170 -139.0663
2596.807157 107.118 -141.5200
2615.624692 107.049 -143.8942
2634.578586 106.965 -146.1846
2653.669829 106.868 -148.3877
2672.899414 106.758 -150.5008
2692.268345 106.638 -152.5228
2711.777632 106.507 -154.4541
2731.428290 106.366 -156.2948
2751.221345 106.218 -158.0446
2771.157829 106.062 -159.7041
2791.238781 105.899 -161.2752
2811.465248 105.731 -162.7595
2831.838284 105.559 -164.1571
2852.358952 105.383 -165.4677
2873.028321 105.205 -166.6927
2893.847468 105.026 -167.8348
2914.817480 104.846 -168.8971
2935.939449 104.667 -169.8845
2957.214476 104.488 -170.8023
2978.643672 104.310 -171.6553
3000.228152 104.134 -172.4478
3021.969041 103.959 -173.1847
3043.867475 103.785 -173.8708
3065.924593 103.614 -174.5109
3088.141547 103.445 -175.1099
3110.519493 103.277 -175.6694
3133.059600 103.110 -176.1881
3155.763041 102.944 -176.6637
3178.631001 102.778 -177.0945
3201.664672 102.614 -177.4808
3224.865254 102.452 -177.8236
