* Measurement data measured by REW V5.40 beta 98
* Source: Микрофон (HiBy Digital D1), MICROPHONE (Общая громкость), R, volume: 0,250
* Format: 256k Log Swept Sine, 1 sweep at -15,0 dBFS with no timing reference
* Dated: 03.10.2025 15:42:48
* REW Settings:
*  C-weighting compensation: Off
*  Target level: 75.0 dB
* Note: 
* Measurement: CNT-H
* Smoothing: 1/12 octave
* Frequency Step: 96 ppo
* Start Frequency: 0.36621094 Hz
*
* Freq(Hz) SPL(dB) Phase(degrees)
0.366211 44.164 -100.2154
0.368865 44.153 -99.8963
0.371538 44.135 -99.5945
0.374230 44.114 -99.3054
0.376942 44.090 -99.0250
0.379673 44.064 -98.7503
0.382424 44.037 -98.4795
0.385196 44.009 -98.2112
0.387987 43.981 -97.9449
0.390798 43.953 -97.6802
0.393630 43.924 -97.4169
0.396483 43.895 -97.1551
0.399356 43.865 -96.8946
0.402250 43.836 -96.6355
0.405165 43.806 -96.3780
0.408101 43.776 -96.1219
0.411058 43.746 -95.8676
0.414037 43.715 -95.6149
0.417037 43.685 -95.3639
0.420059 43.654 -95.1149
0.423103 43.623 -94.8678
0.426169 43.592 -94.6228
0.429257 43.560 -94.3798
0.432368 43.528 -94.1392
0.435501 43.496 -93.9008
0.438656 43.464 -93.6649
0.441835 43.432 -93.4315
0.445037 43.399 -93.2007
0.448262 43.366 -92.9727
0.451510 43.333 -92.7475
0.454782 43.299 -92.5253
0.458077 43.266 -92.3062
0.461397 43.232 -92.0904
0.464740 43.198 -91.8778
0.468108 43.163 -91.6688
0.471500 43.129 -91.4633
0.474917 43.094 -91.2616
0.478358 43.058 -91.0637
0.481825 43.023 -90.8699
0.485316 42.987 -90.6802
0.488833 42.952 -90.4948
0.492375 42.915 -90.3139
0.495943 42.879 -90.1375
0.499537 42.842 -89.9659
0.503157 42.805 -89.7992
0.506803 42.768 -89.6376
0.510475 42.730 -89.4812
0.514175 42.693 -89.3301
0.517900 42.655 -89.1846
0.521653 42.616 -89.0448
0.525434 42.578 -88.9108
0.529241 42.539 -88.7828
0.533076 42.500 -88.6610
0.536939 42.460 -88.5455
0.540830 42.420 -88.4365
0.544749 42.380 -88.3341
0.548696 42.340 -88.2384
0.552673 42.300 -88.1497
0.556677 42.259 -88.0679
0.560711 42.217 -87.9933
0.564774 42.176 -87.9260
0.568867 42.134 -87.8520
0.572989 42.092 -87.7793
0.577141 42.050 -87.7141
0.581324 42.007 -87.6563
0.585536 41.964 -87.6060
0.589779 41.921 -87.5632
0.594053 41.877 -87.5280
0.598358 41.833 -87.5003
0.602694 41.789 -87.4802
0.607061 41.744 -87.4674
0.611460 41.699 -87.4620
0.615891 41.654 -87.4639
0.620354 41.608 -87.4728
0.624849 41.562 -87.4886
0.629377 41.516 -87.5110
0.633938 41.470 -87.5399
0.638532 41.423 -87.5748
0.643159 41.375 -87.6154
0.647819 41.328 -87.6614
0.652514 41.280 -87.7122
0.657242 41.232 -87.7673
0.662005 41.183 -87.8263
0.666802 41.134 -87.8885
0.671634 41.085 -87.9531
0.676501 41.035 -88.0195
0.681403 40.985 -88.0869
0.686341 40.934 -88.1543
0.691314 40.883 -88.2208
0.696324 40.832 -88.2853
0.701370 40.780 -88.3466
0.706452 40.726 -88.4034
0.711571 40.672 -88.4541
0.716728 40.615 -88.4973
0.721921 40.555 -88.5316
0.727153 40.490 -88.5566
0.732422 40.418 -88.5732
0.737729 40.339 -88.5847
0.743075 40.252 -88.5970
0.748460 40.159 -88.6164
0.753883 40.059 -88.6485
0.759346 39.953 -88.6975
0.764849 39.843 -88.7666
0.770391 39.728 -89.1552
0.775974 39.608 -89.6486
0.781597 39.485 -90.1704
0.787261 39.357 -90.7218
0.792966 39.226 -91.3042
0.798712 39.091 -91.9186
0.804500 38.952 -92.5663
0.810329 38.809 -93.2484
0.816201 38.663 -93.9659
0.822116 38.514 -94.7201
0.828073 38.362 -95.5118
0.834074 38.206 -96.3421
0.840118 38.047 -97.2119
0.846206 37.886 -98.1221
0.852338 37.721 -99.0732
0.858514 37.554 -100.0660
0.864735 37.384 -101.1008
0.871001 37.212 -102.1778
0.877313 37.038 -103.2972
0.883670 36.862 -104.4587
0.890074 36.684 -105.6619
0.896524 36.504 -106.9062
0.903020 36.323 -108.1905
0.909564 36.140 -109.5135
0.916155 35.957 -110.8737
0.922794 35.772 -112.2691
0.929481 35.587 -113.6973
0.936216 35.402 -115.1559
0.943000 35.217 -116.6420
0.949834 35.031 -118.1524
0.956717 34.847 -119.6837
0.963649 34.663 -121.2322
0.970632 34.479 -122.8328
0.977666 34.298 -124.4631
0.984750 34.118 -126.0995
0.991886 33.940 -127.7380
0.999074 33.764 -129.3750
1.006314 33.591 -131.0065
1.013606 33.422 -132.6293
1.020951 33.256 -134.2400
1.028349 33.094 -135.8357
1.035801 32.936 -137.4140
1.043307 32.784 -138.9729
1.050867 32.638 -140.5108
1.058482 32.498 -142.0274
1.066152 32.367 -143.5229
1.073878 32.246 -144.9993
1.081660 32.138 -146.4601
1.089498 32.045 -147.9113
1.097393 31.969 -149.3613
1.105345 31.913 -150.8202
1.113355 31.873 -152.2980
1.121423 31.845 -153.8035
1.129549 31.826 -155.3426
1.137734 31.811 -156.9187
1.145979 31.799 -158.5330
1.154283 31.788 -160.1851
1.162647 31.777 -161.8732
1.171072 31.766 -163.5822
1.179558 31.753 -165.3124
1.188106 31.740 -167.0674
1.196715 31.726 -168.8420
1.205387 31.711 -170.6308
1.214122 31.695 -172.4276
1.222920 31.679 -174.2261
1.231782 31.661 -176.0198
1.240708 31.644 -177.8022
1.249699 31.625 -179.5666
1.258754 31.606 178.6932
1.267876 31.587 176.9832
1.277063 31.567 175.3091
1.286318 31.548 173.6760
1.295639 31.528 172.0885
1.305027 31.508 170.5505
1.314484 31.489 169.0654
1.324009 31.469 167.6360
1.333604 31.450 166.2644
1.343268 31.432 164.9521
1.353002 31.414 163.7002
1.362806 31.397 162.5090
1.372681 31.381 161.3184
1.382628 31.366 160.1587
1.392647 31.352 159.0574
1.402739 31.339 158.0129
1.412904 31.328 157.0229
1.423142 31.318 156.0840
1.433455 31.310 155.1919
1.443843 31.303 154.3401
1.454305 31.297 153.5206
1.464844 31.292 152.7231
1.475459 31.288 151.9369
1.486150 31.284 151.1516
1.496920 31.282 150.3598
1.507767 31.280 149.5568
1.518693 31.280 148.7407
1.529698 31.281 147.9111
1.540783 31.283 147.0692
1.551948 31.286 146.2169
1.563194 31.290 145.3562
1.574521 31.295 144.4125
1.585931 31.301 143.4393
1.597423 31.307 142.4648
1.608999 31.314 141.4914
1.620658 31.320 140.5216
1.632402 31.327 139.5579
1.644232 31.334 138.6024
1.656146 31.340 137.6573
1.668147 31.346 136.7245
1.680235 31.351 135.8058
1.692411 31.355 134.9028
1.704675 31.358 134.0167
1.717028 31.359 133.1487
1.729470 31.359 132.2996
1.742003 31.357 131.4697
1.754626 31.352 130.6589
1.767341 31.346 129.8593
1.780147 31.336 129.0161
1.793047 31.324 128.1852
1.806040 31.308 127.3615
1.819128 31.290 126.5369
1.832310 31.267 125.7012
1.845587 31.241 124.8429
1.858961 31.212 123.9514
1.872432 31.179 123.0190
1.886001 31.142 122.0412
1.899667 31.103 121.0163
1.913433 31.060 119.9450
1.927299 31.015 118.8296
1.941265 30.966 117.6732
1.955332 30.915 116.4798
1.969501 30.862 115.2361
1.983773 30.807 113.9099
1.998148 30.751 112.5601
2.012627 30.692 111.1918
2.027212 30.633 109.8097
2.041902 30.573 108.4185
2.056698 30.512 107.0229
2.071602 30.450 105.6267
2.086614 30.389 104.2336
2.101734 30.328 102.8463
2.116964 30.268 101.4661
2.132304 30.208 100.0930
2.147756 30.150 98.7245
2.163320 30.093 97.3550
2.178996 30.036 95.9300
2.194786 29.980 94.4708
2.210690 29.924 92.9701
2.226710 29.867 91.4111
2.242845 29.810 89.7803
2.259098 29.750 88.0694
2.275468 29.690 86.2745
2.291957 29.629 84.3960
2.308566 29.567 82.4374
2.325295 29.505 80.4045
2.342145 29.444 78.3051
2.359117 29.384 76.1479
2.376212 29.326 73.9047
2.393431 29.271 71.5975
2.410775 29.220 69.2624
2.428244 29.173 66.9092
2.445840 29.131 64.5469
2.463564 29.095 62.1826
2.481416 29.066 59.8211
2.499397 29.046 57.4642
2.517509 29.033 55.1093
2.535752 29.031 52.7487
2.554127 29.038 50.3697
2.572635 29.056 47.9296
2.591277 29.083 45.3911
2.610055 29.121 42.7910
2.628968 29.169 40.1266
2.648019 29.226 37.4033
2.667208 29.293 34.6325
2.686535 29.367 31.8303
2.706003 29.450 29.0151
2.725612 29.539 26.2059
2.745363 29.636 23.4212
2.765257 29.738 20.6777
2.785295 29.846 17.9349
2.805478 29.959 15.2560
2.825808 30.076 12.6501
2.846285 30.197 10.1204
2.866910 30.321 7.6651
2.887685 30.448 5.2781
2.908611 30.579 2.9487
2.929688 30.715 0.6631
2.950917 30.855 -1.5931
2.972301 31.000 -3.8451
2.993839 31.152 -6.1174
3.015534 31.309 -8.3752
3.037386 31.472 -10.6129
3.059396 31.639 -12.8219
3.081565 31.810 -14.9927
3.103896 31.985 -17.1160
3.126388 32.161 -19.1840
3.149043 32.338 -21.1901
3.171862 32.515 -23.1416
3.194847 32.691 -25.0585
3.217998 32.864 -26.9091
3.241317 33.034 -28.6979
3.264805 33.201 -30.4324
3.288463 33.365 -32.1232
3.312293 33.524 -33.7824
3.336295 33.681 -35.4211
3.360471 33.836 -37.0461
3.384822 33.988 -38.6938
3.409350 34.138 -40.3385
3.434056 34.286 -41.9652
3.458940 34.431 -43.5679
3.484005 34.574 -45.1396
3.509252 34.714 -46.6746
3.534681 34.851 -48.1675
3.560295 34.985 -49.6147
3.586094 35.116 -51.0488
3.612081 35.242 -52.4474
3.638255 35.365 -53.8059
3.664620 35.484 -55.1321
3.691175 35.598 -56.4353
3.717923 35.708 -57.7236
3.744864 35.814 -59.0022
3.772001 35.916 -60.2819
3.799335 36.013 -61.5853
3.826866 36.107 -62.8744
3.854597 36.196 -64.1435
3.882529 36.282 -65.3867
3.910664 36.365 -66.5986
3.939002 36.443 -67.7746
3.967546 36.518 -68.9139
3.996296 36.589 -70.0442
4.025255 36.656 -71.1399
4.054423 36.719 -72.2069
4.083804 36.778 -73.2515
4.113396 36.833 -74.2786
4.143204 36.884 -75.2905
4.173227 36.930 -76.2946
4.203468 36.973 -77.3055
4.233928 37.012 -78.2949
4.264609 37.048 -79.2581
4.295512 37.080 -80.1908
4.326639 37.109 -81.0891
4.357992 37.136 -81.9510
4.389572 37.159 -82.8004
4.421380 37.179 -83.6240
4.453419 37.196 -84.4172
4.485691 37.210 -85.1832
4.518196 37.220 -85.9241
4.550936 37.227 -86.6407
4.583914 37.232 -87.3490
4.617131 37.234 -88.0448
4.650589 37.234 -88.7117
4.684289 37.232 -89.3473
4.718233 37.229 -89.9491
4.752424 37.224 -90.5158
4.786862 37.217 -91.0646
4.821549 37.209 -91.5902
4.856488 37.200 -92.0830
4.891680 37.189 -92.5446
4.927127 37.176 -92.9767
4.962831 37.163 -93.3806
4.998794 37.149 -93.7803
5.035017 37.134 -94.1557
5.071503 37.119 -94.5043
5.108253 37.104 -94.8259
5.145270 37.089 -95.1200
5.182555 37.074 -95.3969
5.220110 37.059 -95.6595
5.257937 37.044 -95.8952
5.296038 37.029 -96.1052
5.334415 37.014 -96.2911
5.373071 36.998 -96.4586
5.412006 36.983 -96.6226
5.451224 36.967 -96.7671
5.490725 36.951 -96.8927
5.530514 36.934 -96.9994
5.570590 36.918 -97.0891
5.610957 36.901 -97.1774
5.651616 36.883 -97.2444
5.692570 36.865 -97.2890
5.733821 36.846 -97.3102
5.775370 36.826 -97.3119
5.817221 36.804 -97.3051
5.859375 36.781 -97.2727
5.901834 36.756 -97.2142
5.944602 36.730 -97.1283
5.987679 36.702 -97.0234
6.031068 36.673 -96.8965
6.074771 36.643 -96.7330
6.118792 36.612 -96.5289
6.163131 36.581 -96.2803
6.207792 36.550 -95.9991
6.252776 36.518 -95.6686
6.298086 36.487 -95.2861
6.343725 36.456 -94.8502
6.389694 36.428 -94.3682
6.435996 36.402 -93.8386
6.482634 36.382 -93.2521
6.529610 36.367 -92.6075
6.576926 36.360 -91.9078
6.624585 36.362 -91.1622
6.672590 36.372 -90.3610
6.720942 36.392 -89.5096
6.769645 36.422 -88.6182
6.818700 36.465 -87.7100
6.868111 36.521 -86.7824
6.917881 36.591 -85.8456
6.968010 36.676 -84.9091
7.018504 36.777 -83.9952
7.069362 36.893 -83.0989
7.120590 37.023 -82.2324
7.172189 37.166 -81.4113
7.224161 37.320 -80.6596
7.276511 37.485 -79.9768
7.329239 37.658 -79.3704
7.382350 37.840 -78.8477
7.435845 38.029 -78.4152
7.489729 38.223 -78.0656
7.544002 38.420 -77.8004
7.598669 38.618 -77.6282
7.653732 38.815 -77.5475
7.709194 39.009 -77.5521
7.765058 39.199 -77.6383
7.821327 39.385 -77.8114
7.878004 39.565 -78.0525
7.935091 39.738 -78.3538
7.992592 39.903 -78.7134
8.050510 40.060 -79.1271
8.108847 40.206 -79.5838
8.167607 40.342 -80.0775
8.226793 40.468 -80.6096
8.286408 40.584 -81.1594
8.346454 40.689 -81.7166
8.406936 40.783 -82.2789
8.467856 40.867 -82.8368
8.529218 40.940 -83.3813
8.591024 41.003 -83.9094
8.653278 41.057 -84.4135
8.715983 41.103 -84.8784
8.779143 41.142 -85.2972
8.842760 41.174 -85.6696
8.906839 41.201 -85.9840
8.971381 41.224 -86.2380
9.036392 41.245 -86.4355
9.101873 41.266 -86.5654
9.167829 41.288 -86.6262
9.234263 41.314 -86.6273
9.301178 41.344 -86.5638
9.368578 41.381 -86.4431
9.436467 41.425 -86.2815
9.504847 41.479 -86.0806
9.573723 41.544 -85.8507
9.643099 41.619 -85.6087
9.712976 41.704 -85.3608
9.783361 41.797 -85.1237
9.854255 41.899 -84.9152
9.925663 42.007 -84.7410
9.997588 42.120 -84.6093
10.070035 42.235 -84.5476
10.143007 42.350 -84.5421
10.216507 42.463 -84.5967
10.290540 42.572 -84.7130
10.365109 42.676 -84.8893
10.440219 42.778 -85.1211
10.515873 42.876 -85.4014
10.592076 42.973 -85.7229
10.668830 43.068 -86.0775
10.746141 43.160 -86.4559
10.824012 43.245 -86.8464
10.902447 43.320 -87.2360
10.981451 43.382 -87.6122
11.061027 43.430 -87.9868
11.141180 43.465 -88.3335
11.221913 43.491 -88.6346
11.303232 43.512 -88.8799
11.385140 43.532 -89.0613
11.467641 43.555 -89.1739
11.550741 43.583 -89.2166
11.634442 43.617 -89.1907
11.718750 43.660 -89.1005
11.803669 43.711 -88.9535
11.889203 43.771 -88.7617
11.975357 43.839 -88.5413
12.062136 43.915 -88.3287
12.149543 43.999 -88.1313
12.237583 44.092 -87.9596
12.326262 44.196 -87.8318
12.415583 44.311 -87.7645
12.505552 44.438 -87.7705
12.596172 44.575 -87.8577
12.687449 44.716 -88.0298
12.779387 44.856 -88.2869
12.871992 44.990 -88.6252
12.965268 45.113 -89.0363
13.059220 45.222 -89.5214
13.153852 45.316 -90.0588
13.249170 45.392 -90.6228
13.345179 45.452 -91.1937
13.441884 45.495 -91.7489
13.539289 45.521 -92.2646
13.637401 45.533 -92.7177
13.736223 45.530 -93.0857
13.835761 45.512 -93.3469
13.936021 45.483 -93.4816
14.037007 45.446 -93.4823
14.138725 45.406 -93.3458
14.241180 45.372 -93.0584
14.344377 45.351 -92.6266
14.448323 45.350 -92.0672
14.553021 45.372 -91.4073
14.658478 45.421 -90.6824
14.764700 45.497 -89.9330
14.871691 45.598 -89.2025
14.979457 45.721 -88.5337
15.088005 45.864 -87.9778
15.197339 46.020 -87.5524
15.307465 46.186 -87.2727
15.418389 46.355 -87.1479
15.530117 46.523 -87.1764
15.642655 46.683 -87.3477
15.756008 46.830 -87.6445
15.870182 46.960 -88.0452
15.985184 47.070 -88.5235
16.101019 47.161 -89.0635
16.217694 47.232 -89.6260
16.335214 47.284 -90.1811
16.453586 47.318 -90.7019
16.572815 47.336 -91.1642
16.692909 47.340 -91.5483
16.813872 47.333 -91.8390
16.935713 47.318 -92.0268
17.058436 47.302 -92.1154
17.182048 47.289 -92.1106
17.306556 47.285 -92.0173
17.431967 47.293 -91.8536
17.558286 47.314 -91.6431
17.685521 47.351 -91.4119
17.813677 47.401 -91.1869
17.942762 47.463 -90.9935
18.072783 47.537 -90.8596
18.203746 47.619 -90.8002
18.335658 47.707 -90.8209
18.468526 47.798 -90.9257
18.602356 47.887 -91.1132
18.737156 47.972 -91.3769
18.872934 48.050 -91.7062
19.009695 48.120 -92.0884
19.147447 48.182 -92.5173
19.286197 48.235 -92.9663
19.425953 48.279 -93.4189
19.566721 48.316 -93.8593
19.708510 48.346 -94.2733
19.851326 48.370 -94.6498
19.995177 48.392 -94.9811
20.140070 48.416 -95.2727
20.286013 48.444 -95.5182
20.433014 48.479 -95.7249
20.581080 48.523 -95.9056
20.730219 48.577 -96.0776
20.880439 48.641 -96.2615
21.031747 48.715 -96.4799
21.184152 48.797 -96.7575
21.337661 48.885 -97.1022
21.492282 48.977 -97.5225
21.648024 49.067 -98.0192
21.804895 49.152 -98.5844
21.962902 49.229 -99.2019
22.122054 49.293 -99.8549
22.282360 49.344 -100.5093
22.443827 49.379 -101.1302
22.606464 49.397 -101.6835
22.770280 49.399 -102.1366
22.935283 49.388 -102.4617
23.101481 49.370 -102.6440
23.268884 49.354 -102.6721
23.437500 49.347 -102.5455
23.607338 49.356 -102.2792
23.778406 49.386 -101.8994
23.950714 49.438 -101.4399
24.124271 49.514 -100.9427
24.299086 49.611 -100.4404
24.475167 49.726 -99.9615
24.652524 49.855 -99.5283
24.831166 49.993 -99.1548
25.011103 50.136 -98.8483
25.192344 50.282 -98.6160
25.374898 50.428 -98.4500
25.558775 50.573 -98.3470
25.743984 50.715 -98.3037
25.930536 50.852 -98.3167
26.118439 50.983 -98.3843
26.307704 51.106 -98.5005
26.498341 51.219 -98.6567
26.690359 51.322 -98.8439
26.883768 51.412 -99.0511
27.078579 51.490 -99.2688
27.274801 51.556 -99.4864
27.472446 51.610 -99.6898
27.671522 51.655 -99.8708
27.872042 51.691 -100.0244
28.074014 51.721 -100.1498
28.277450 51.745 -100.2484
28.482360 51.765 -100.3176
28.688755 51.781 -100.3590
28.896645 51.796 -100.3746
29.106042 51.810 -100.3691
29.316957 51.824 -100.3473
29.529400 51.841 -100.3141
29.743382 51.862 -100.2803
29.958915 51.889 -100.2594
30.176009 51.923 -100.2689
30.394677 51.963 -100.3196
30.614929 52.009 -100.4190
30.836778 52.058 -100.5697
31.060234 52.109 -100.7690
31.285309 52.161 -101.0110
31.512015 52.215 -101.2830
31.740364 52.270 -101.5797
31.970368 52.331 -101.9023
32.202039 52.396 -102.2625
32.435388 52.468 -102.6704
32.670428 52.542 -103.1367
32.907171 52.617 -103.6638
33.145630 52.685 -104.2412
33.385817 52.742 -104.8383
33.627745 52.787 -105.4088
33.871425 52.819 -105.9005
34.116871 52.845 -106.2675
34.364096 52.871 -106.4805
34.613113 52.910 -106.5382
34.863934 52.968 -106.4746
35.116572 53.051 -106.3532
35.371041 53.158 -106.2476
35.627354 53.283 -106.2190
35.885525 53.414 -106.3038
36.145566 53.541 -106.5059
36.407492 53.655 -106.7947
36.671316 53.752 -107.1193
36.937051 53.830 -107.4265
37.204712 53.896 -107.6733
37.474313 53.953 -107.8365
37.745867 54.009 -107.9152
38.019389 54.067 -107.9280
38.294893 54.130 -107.9074
38.572394 54.197 -107.8799
38.851905 54.267 -107.8702
39.133442 54.336 -107.8953
39.417019 54.402 -107.9623
39.702651 54.463 -108.0706
39.990353 54.517 -108.2148
40.280140 54.564 -108.3888
40.572026 54.605 -108.5760
40.866028 54.640 -108.7610
41.162160 54.671 -108.9294
41.460438 54.701 -109.0708
41.760877 54.734 -109.1816
42.063494 54.773 -109.2681
42.368303 54.821 -109.3454
42.675322 54.878 -109.4290
42.984565 54.946 -109.5365
43.296048 55.022 -109.6842
43.609789 55.102 -109.8749
43.925804 55.185 -110.1061
44.244108 55.267 -110.3691
44.564719 55.347 -110.6489
44.887654 55.426 -110.9298
45.212928 55.503 -111.2006
45.540560 55.579 -111.4532
45.870565 55.657 -111.6851
46.202962 55.736 -111.8995
46.537768 55.817 -112.1025
46.875000 55.900 -112.3027
47.214676 55.985 -112.5126
47.556813 56.073 -112.7422
47.901429 56.162 -112.9989
48.248542 56.249 -113.2859
48.598171 56.330 -113.5958
48.950334 56.404 -113.9119
49.305048 56.468 -114.2162
49.662333 56.524 -114.4946
50.022206 56.573 -114.7477
50.384688 56.618 -114.9916
50.749796 56.660 -115.2423
51.117550 56.698 -115.5131
51.487969 56.730 -115.8021
51.861072 56.757 -116.0920
52.236879 56.778 -116.3596
52.615409 56.797 -116.5856
52.996681 56.816 -116.7626
53.380717 56.839 -116.8969
53.767536 56.868 -116.9990
54.157158 56.903 -117.0829
54.549603 56.946 -117.1592
54.944892 56.994 -117.2339
55.343045 57.049 -117.3169
55.744084 57.112 -117.4201
56.148028 57.182 -117.5603
56.554900 57.258 -117.7546
56.964720 57.336 -118.0139
57.377510 57.413 -118.3387
57.793291 57.482 -118.7151
58.212085 57.542 -119.1204
58.633914 57.594 -119.5264
59.058799 57.640 -119.9084
59.486764 57.685 -120.2546
59.917829 57.732 -120.5663
60.352019 57.785 -120.8593
60.789354 57.841 -121.1500
61.229859 57.899 -121.4526
61.673556 57.956 -121.7715
62.120468 58.014 -122.1021
62.570618 58.071 -122.4379
63.024031 58.130 -122.7757
63.480729 58.191 -123.1155
63.940736 58.253 -123.4582
64.404077 58.314 -123.8074
64.870776 58.373 -124.1601
65.340856 58.429 -124.5140
65.814343 58.482 -124.8666
66.291261 58.533 -125.2139
66.771635 58.583 -125.5505
67.255489 58.635 -125.8769
67.742850 58.690 -126.1996
68.233743 58.747 -126.5256
68.728193 58.803 -126.8589
69.226226 58.855 -127.1974
69.727867 58.904 -127.5358
70.233144 58.947 -127.8726
70.742083 58.987 -128.2103
71.254709 59.024 -128.5508
71.771050 59.058 -128.8933
72.291132 59.091 -129.2335
72.814984 59.126 -129.5692
73.342631 59.165 -129.9067
73.874102 59.208 -130.2509
74.409424 59.255 -130.6062
74.948626 59.305 -130.9799
75.491734 59.356 -131.3767
76.038779 59.406 -131.7926
76.589787 59.454 -132.2239
77.144788 59.499 -132.6741
77.703811 59.542 -133.1492
78.266885 59.577 -133.6409
78.834039 59.605 -134.1253
79.405303 59.627 -134.5691
79.980706 59.647 -134.9514
80.560280 59.672 -135.2830
81.144053 59.704 -135.5919
81.732056 59.743 -135.9045
82.324320 59.785 -136.2358
82.920876 59.829 -136.5852
83.521755 59.872 -136.9465
84.126988 59.914 -137.3157
84.736607 59.953 -137.6870
85.350643 59.989 -138.0527
85.969129 60.022 -138.4101
86.592097 60.052 -138.7646
87.219579 60.080 -139.1147
87.851608 60.106 -139.4658
88.488217 60.131 -139.8284
89.129439 60.155 -140.2063
