* Measurement data measured by REW V5.31.3
* Source: EXCL: Микрофон (2- CX31993 384Khz HIFI AUDIO), MICROPHONE (Общая громкость), 0, volume: 0,000
* Format: 256k Log Swept Sine, 1 sweep at -20,0 dBFS with no timing reference
* Dated: 26.01.2025 14:30:51
* REW Settings:
*  C-weighting compensation: Off
*  Target level: 75.0 dB
* Note: 
* Measurement: OPEN
* Smoothing: 1/12 octave
* Frequency Step: 96 ppo
* Start Frequency: 20.141602 Hz
*
* Freq(Hz) SPL(dB) Phase(degrees)
20.141602 67.530 -73.4979
20.287556 67.486 -73.5054
20.434568 67.416 -73.5279
20.582645 67.318 -73.5785
20.731796 67.193 -73.6692
20.882027 67.042 -73.8088
21.033346 66.869 -74.0022
21.185763 66.682 -74.2490
21.339284 66.491 -74.5445
21.493917 66.309 -74.8795
21.649671 66.153 -75.2424
21.806553 66.041 -75.6215
21.964572 65.991 -76.0086
22.123737 66.018 -76.4017
22.284054 66.134 -76.8076
22.445534 66.339 -77.2411
22.608183 66.624 -77.7222
22.772012 66.973 -78.2710
22.937027 67.364 -78.9024
23.103238 67.773 -79.6231
23.270654 68.175 -80.4290
23.439282 68.549 -81.3059
23.609133 68.879 -82.2309
23.780215 69.149 -83.1740
23.952536 69.349 -84.0998
24.126106 69.474 -84.9695
24.300934 69.520 -85.7422
24.477028 69.488 -86.3769
24.654399 69.384 -86.8359
24.833055 69.217 -87.0890
25.013005 69.001 -87.1195
25.194260 68.753 -86.9323
25.376828 68.497 -86.5599
25.560719 68.257 -86.0663
25.745942 68.057 -85.5421
25.932508 67.916 -85.0901
26.120426 67.847 -84.8044
26.309705 67.854 -84.7474
26.500356 67.931 -84.9364
26.692388 68.067 -85.3423
26.885812 68.247 -85.9009
27.080638 68.456 -86.5307
27.276876 68.680 -87.1515
27.474535 68.907 -87.6984
27.673627 69.127 -88.1295
27.874161 69.331 -88.4274
28.076149 69.513 -88.5954
28.279600 69.667 -88.6522
28.484526 69.790 -88.6247
28.690937 69.879 -88.5422
28.898843 69.935 -88.4331
29.108256 69.961 -88.3235
29.319186 69.962 -88.2369
29.531645 69.944 -88.1952
29.745644 69.919 -88.2189
29.961193 69.895 -88.3256
30.178304 69.881 -88.5267
30.396989 69.883 -88.8236
30.617258 69.907 -89.2046
30.839123 69.953 -89.6449
31.062596 70.021 -90.1105
31.287688 70.108 -90.5649
31.514412 70.210 -90.9780
31.742778 70.326 -91.3338
31.972800 70.449 -91.6343
32.204488 70.575 -91.8981
32.437855 70.700 -92.1549
32.672913 70.816 -92.4366
32.909674 70.918 -92.7679
33.148151 71.002 -93.1599
33.388356 71.066 -93.6078
33.630302 71.111 -94.0927
33.874001 71.141 -94.5873
34.119466 71.163 -95.0637
34.366710 71.186 -95.4997
34.615745 71.218 -95.8837
34.866585 71.265 -96.2147
35.119243 71.329 -96.4996
35.373731 71.409 -96.7475
35.630064 71.500 -96.9654
35.888254 71.596 -97.1562
36.148315 71.692 -97.3203
36.410261 71.782 -97.4590
36.674104 71.864 -97.5775
36.939860 71.935 -97.6860
37.207542 71.993 -97.7978
37.477163 72.039 -97.9264
37.748738 72.073 -98.0817
38.022281 72.098 -98.2686
38.297806 72.119 -98.4885
38.575327 72.141 -98.7422
38.854860 72.171 -99.0327
39.136419 72.216 -99.3652
39.420017 72.277 -99.7438
39.705671 72.355 -100.1658
39.993395 72.445 -100.6171
40.283203 72.543 -101.0717
40.575112 72.643 -101.4984
40.869136 72.740 -101.8701
41.165290 72.831 -102.1738
41.463591 72.915 -102.4158
41.764053 72.990 -102.6192
42.066693 73.055 -102.8152
42.371525 73.110 -103.0323
42.678567 73.157 -103.2880
42.987834 73.202 -103.5879
43.299341 73.251 -103.9295
43.613106 73.312 -104.3079
43.929145 73.389 -104.7164
44.247473 73.479 -105.1435
44.568109 73.577 -105.5680
44.891068 73.671 -105.9609
45.216367 73.754 -106.2975
45.544023 73.818 -106.5774
45.874054 73.862 -106.8392
46.206476 73.884 -107.1603
46.541307 73.884 -107.6330
46.878565 73.857 -108.3227
47.218266 73.804 -109.2282
47.560429 73.730 -110.2633
47.905072 73.651 -111.2754
48.252212 73.598 -112.0988
48.601867 73.600 -112.6225
48.954056 73.678 -112.8395
49.308798 73.831 -112.8406
49.666109 74.035 -112.7553
50.026010 74.254 -112.6839
50.388520 74.456 -112.6664
50.753656 74.625 -112.6982
51.121437 74.758 -112.7667
51.491884 74.862 -112.8780
51.865016 74.950 -113.0574
52.240851 75.030 -113.3281
52.619410 75.106 -113.6857
53.000712 75.179 -114.0887
53.384777 75.248 -114.4736
53.771625 75.315 -114.7823
54.161276 75.380 -114.9883
54.553751 75.446 -115.1053
54.949070 75.514 -115.1776
55.347254 75.584 -115.2591
55.748323 75.656 -115.3937
56.152298 75.730 -115.6056
56.559201 75.805 -115.8997
56.969052 75.880 -116.2672
57.381873 75.952 -116.6894
57.797686 76.017 -117.1405
58.216512 76.074 -117.5912
58.638373 76.122 -118.0193
59.063291 76.166 -118.4228
59.491288 76.211 -118.8265
59.922386 76.262 -119.2724
60.356608 76.317 -119.7950
60.793977 76.372 -120.3978
61.234515 76.424 -121.0501
61.678246 76.474 -121.7058
62.125192 76.526 -122.3306
62.575377 76.583 -122.9167
63.028824 76.646 -123.4767
63.485557 76.713 -124.0250
63.945599 76.780 -124.5641
64.408975 76.844 -125.0874
64.875709 76.905 -125.5897
65.345825 76.963 -126.0760
65.819348 77.018 -126.5590
66.296302 77.068 -127.0516
66.776713 77.115 -127.5589
67.260604 77.158 -128.0761
67.748002 77.200 -128.5905
68.238932 77.244 -129.0886
68.733420 77.293 -129.5638
69.231490 77.348 -130.0228
69.733170 77.407 -130.4828
70.238485 77.464 -130.9609
70.747463 77.514 -131.4614
71.260128 77.555 -131.9744
71.776508 77.590 -132.4844
72.296630 77.624 -132.9841
72.820521 77.666 -133.4789
73.348209 77.716 -133.9818
73.879720 77.776 -134.5049
74.415083 77.839 -135.0562
74.954326 77.902 -135.6405
75.497475 77.961 -136.2595
76.044561 78.013 -136.9090
76.595612 78.059 -137.5751
77.150655 78.100 -138.2369
77.709720 78.140 -138.8762
78.272837 78.182 -139.4871
78.840034 78.225 -140.0762
79.411342 78.267 -140.6534
79.986789 78.306 -141.2218
80.566406 78.341 -141.7772
81.150224 78.372 -142.3150
81.738272 78.400 -142.8345
82.330581 78.423 -143.3387
82.927182 78.442 -143.8330
83.528107 78.457 -144.3285
84.133386 78.469 -144.8412
84.743051 78.482 -145.3841
85.357134 78.497 -145.9578
85.975667 78.515 -146.5533
86.598682 78.539 -147.1635
87.226212 78.568 -147.7892
87.858289 78.600 -148.4326
88.494946 78.632 -149.0869
89.136217 78.662 -149.7358
89.782135 78.688 -150.3617
90.432733 78.713 -150.9555
91.088046 78.734 -151.5220
91.748108 78.754 -152.0788
92.412952 78.771 -152.6464
93.082615 78.786 -153.2367
93.757130 78.798 -153.8482
94.436533 78.807 -154.4698
95.120859 78.814 -155.0891
95.810144 78.817 -155.6980
96.504423 78.817 -156.2968
97.203734 78.816 -156.8932
97.908112 78.814 -157.4943
98.617595 78.812 -158.0992
99.332219 78.811 -158.7000
100.052021 78.813 -159.2896
100.777039 78.818 -159.8665
101.507311 78.826 -160.4340
102.242875 78.836 -160.9964
102.983769 78.844 -161.5593
103.730032 78.849 -162.1301
104.481702 78.850 -162.7137
105.238820 78.845 -163.3075
106.001424 78.837 -163.9038
106.769554 78.826 -164.4946
107.543250 78.813 -165.0787
108.322553 78.801 -165.6642
109.107503 78.789 -166.2607
109.898141 78.777 -166.8664
110.694508 78.764 -167.4651
111.496646 78.751 -168.0368
112.304596 78.738 -168.5729
113.118402 78.727 -169.0842
113.938104 78.714 -169.5929
114.763747 78.698 -170.1153
115.595372 78.679 -170.6568
116.433024 78.657 -171.2176
117.276746 78.634 -171.7974
118.126581 78.613 -172.3893
118.982575 78.592 -172.9768
119.844772 78.573 -173.5393
120.713217 78.555 -174.0679
121.587954 78.536 -174.5741
122.469031 78.516 -175.0855
123.356492 78.492 -175.6341
124.250384 78.465 -176.2435
125.150753 78.434 -176.9144
126.057647 78.403 -177.6156
126.971113 78.374 -178.2891
127.891198 78.344 -178.8769
128.817950 78.311 -179.3601
129.751418 78.274 -179.7694
130.691651 78.234 179.8498
131.638696 78.192 179.4732
132.592604 78.152 179.0982
133.553425 78.114 178.7291
134.521208 78.078 178.3642
135.496004 78.044 177.9904
136.477864 78.011 177.5947
137.466839 77.978 177.1785
138.462981 77.943 176.7526
139.466340 77.906 176.3215
140.476971 77.869 175.8868
141.494925 77.832 175.4609
142.520256 77.793 175.0641
143.553016 77.751 174.7081
144.593260 77.705 174.3825
145.641043 77.656 174.0635
146.696418 77.606 173.7328
147.759441 77.556 173.3799
148.830166 77.506 172.9974
149.908651 77.458 172.5856
150.994951 77.411 172.1564
152.089123 77.366 171.7292
153.191223 77.322 171.3244
154.301310 77.280 170.9572
155.419441 77.237 170.6316
156.545674 77.194 170.3382
157.680069 77.149 170.0585
158.822683 77.103 169.7760
159.973578 77.057 169.4833
161.132813 77.012 169.1816
162.300447 76.967 168.8767
163.476543 76.922 168.5782
164.661162 76.876 168.2951
165.854364 76.828 168.0301
167.056213 76.779 167.7777
168.266772 76.727 167.5282
169.486102 76.674 167.2746
170.714268 76.620 167.0168
171.951334 76.566 166.7598
173.197364 76.515 166.5099
174.452424 76.468 166.2714
175.716578 76.423 166.0448
176.989893 76.379 165.8276
178.272434 76.335 165.6157
179.564270 76.289 165.4053
180.865467 76.241 165.1938
182.176092 76.192 164.9775
183.496216 76.141 164.7535
184.825905 76.092 164.5233
186.165229 76.044 164.2909
187.514259 75.998 164.0594
188.873065 75.953 163.8300
190.241717 75.909 163.6044
191.620287 75.864 163.3874
193.008847 75.818 163.1833
194.407468 75.771 162.9929
195.816225 75.724 162.8131
197.235190 75.677 162.6386
198.664438 75.630 162.4626
200.104042 75.583 162.2828
201.554078 75.535 162.1050
203.014622 75.488 161.9352
204.485750 75.440 161.7725
205.967538 75.390 161.6127
207.460064 75.340 161.4556
208.963405 75.289 161.3055
210.477640 75.237 161.1664
212.002848 75.186 161.0391
213.539108 75.137 160.9210
215.086500 75.089 160.8080
216.645105 75.042 160.6947
218.215005 74.995 160.5762
219.796281 74.947 160.4493
221.389015 74.896 160.3158
222.993292 74.844 160.1838
224.609193 74.791 160.0626
226.236804 74.738 159.9567
227.876209 74.687 159.8647
229.527494 74.635 159.7816
231.190745 74.584 159.7000
232.866048 74.531 159.6121
234.553491 74.478 159.5135
236.253163 74.424 159.4043
237.965150 74.370 159.2902
239.689544 74.316 159.1808
241.426433 74.261 159.0844
243.175909 74.205 159.0064
244.938062 74.148 158.9488
246.712984 74.091 158.9088
248.500768 74.035 158.8781
250.301507 73.982 158.8440
252.115295 73.930 158.7971
253.942226 73.881 158.7363
255.782396 73.832 158.6627
257.635901 73.782 158.5775
259.502837 73.730 158.4875
261.383301 73.676 158.4029
263.277392 73.618 158.3312
265.185209 73.557 158.2745
267.106850 73.496 158.2313
269.042417 73.434 158.1991
270.992009 73.372 158.1763
272.955729 73.312 158.1645
274.933678 73.252 158.1671
276.925961 73.193 158.1866
278.932681 73.131 158.2220
280.953942 73.067 158.2676
282.989850 73.000 158.3120
285.040511 72.932 158.3440
287.106032 72.865 158.3616
289.186521 72.800 158.3751
291.282086 72.737 158.4036
293.392836 72.672 158.4633
295.518881 72.605 158.5609
297.660333 72.532 158.6982
299.817302 72.449 158.8777
301.989902 72.357 159.1049
304.178245 72.257 159.3897
306.382446 72.155 159.7461
308.602620 72.057 160.1866
310.838882 71.969 160.7193
313.091348 71.894 161.3479
315.360137 71.836 162.0730
317.645367 71.800 162.8902
319.947156 71.790 163.7848
322.265625 71.812 164.7188
324.600895 71.867 165.6257
326.953086 71.953 166.4213
329.322323 72.063 167.0280
331.708729 72.185 167.3957
334.112427 72.305 167.5124
336.533543 72.412 167.4026
338.972204 72.498 167.1164
341.428536 72.559 166.7135
343.902668 72.593 166.2468
346.394729 72.603 165.7569
348.904848 72.594 165.2746
351.433156 72.572 164.8243
353.979786 72.543 164.4254
356.544869 72.511 164.0907
359.128540 72.478 163.8250
361.730934 72.443 163.6287
364.352185 72.408 163.4976
366.992431 72.371 163.4146
369.651810 72.335 163.3518
372.330459 72.300 163.2849
375.028519 72.268 163.1995
377.746130 72.238 163.0922
380.483434 72.211 162.9661
383.240574 72.181 162.8241
386.017693 72.146 162.6681
388.814937 72.101 162.5037
391.632450 72.046 162.3467
394.470380 71.982 162.2207
397.328875 71.913 162.1455
400.208084 71.843 162.1270
403.108157 71.777 162.1558
406.029245 71.715 162.2158
408.971500 71.658 162.2953
411.935076 71.605 162.3887
414.920127 71.556 162.4916
417.926810 71.512 162.6028
420.955280 71.470 162.7224
424.005695 71.432 162.8476
427.078215 71.395 162.9753
430.173000 71.360 163.1034
433.290211 71.324 163.2310
436.430010 71.288 163.3571
439.592562 71.249 163.4790
442.778031 71.210 163.5946
445.986583 71.169 163.7028
449.218386 71.126 163.8033
452.473607 71.081 163.8951
455.752418 71.036 163.9761
459.054987 70.991 164.0470
462.381489 70.949 164.1143
465.732096 70.909 164.1889
469.106983 70.872 164.2786
472.506325 70.836 164.3851
475.930301 70.800 164.5101
479.379088 70.762 164.6591
482.852867 70.724 164.8361
486.351817 70.683 165.0380
489.876123 70.643 165.2573
493.425968 70.602 165.4869
497.001536 70.564 165.7205
500.603014 70.528 165.9538
504.230589 70.495 166.1879
507.884452 70.465 166.4261
511.564792 70.437 166.6680
515.271802 70.409 166.9086
519.005673 70.380 167.1451
522.766602 70.351 167.3765
526.554785 70.321 167.6010
530.370418 70.292 167.8173
534.213700 70.263 168.0265
538.084833 70.234 168.2305
541.984018 70.204 168.4336
545.911457 70.175 168.6409
549.867357 70.146 168.8536
553.851922 70.118 169.0720
557.865362 70.090 169.2976
561.907884 70.062 169.5323
565.979700 70.035 169.7731
570.081022 70.009 170.0122
574.212064 69.984 170.2423
578.373042 69.961 170.4621
582.564171 69.938 170.6765
586.785671 69.918 170.8925
591.037762 69.899 171.1135
595.320665 69.882 171.3337
599.634604 69.863 171.5411
603.979804 69.842 171.7272
608.356491 69.817 171.8905
612.764893 69.789 172.0374
617.205240 69.759 172.1834
621.677763 69.731 172.3480
626.182696 69.705 172.5449
630.720274 69.682 172.7769
635.290733 69.661 173.0353
639.894312 69.642 173.3045
644.531250 69.625 173.5704
649.201789 69.609 173.8264
653.906173 69.593 174.0729
658.644647 69.577 174.3156
663.417457 69.562 174.5598
668.224854 69.548 174.8075
673.067086 69.534 175.0594
677.944408 69.521 175.3128
682.857073 69.508 175.5624
687.805336 69.496 175.8040
692.789457 69.482 176.0329
697.809695 69.467 176.2464
702.866312 69.448 176.4469
707.959571 69.428 176.6427
713.089738 69.405 176.8439
718.257080 69.382 177.0587
723.461867 69.357 177.2936
728.704370 69.332 177.5479
733.984862 69.308 177.8150
739.303619 69.288 178.0910
744.660918 69.270 178.3738
750.057038 69.255 178.6593
755.492260 69.241 178.9437
760.966869 69.226 179.2267
766.481148 69.210 179.5063
772.035387 69.193 179.7763
777.629873 69.175 -179.9691
783.264900 69.157 -179.7302
788.940760 69.140 -179.5013
794.657750 69.124 -179.2751
800.416168 69.108 -179.0485
806.216313 69.091 -178.8224
812.058489 69.074 -178.5948
817.943000 69.056 -178.3598
823.870152 69.038 -178.1132
829.840255 69.022 -177.8542
835.853619 69.007 -177.5859
841.910559 68.993 -177.3126
848.011390 68.979 -177.0393
854.156430 68.964 -176.7715
860.346000 68.947 -176.5117
866.580422 68.927 -176.2555
872.860020 68.907 -175.9953
879.185124 68.887 -175.7289
885.556062 68.867 -175.4594
891.973166 68.849 -175.1877
898.436771 68.831 -174.9118
904.947215 68.814 -174.6299
911.504835 68.797 -174.3389
918.109975 68.781 -174.0330
924.762978 68.765 -173.7110
931.464192 68.750 -173.3770
938.213966 68.735 -173.0376
945.012651 68.720 -172.6999
951.860602 68.705 -172.3674
958.758176 68.689 -172.0397
965.705733 68.673 -171.7142
972.703635 68.657 -171.3879
979.752246 68.642 -171.0589
986.851935 68.628 -170.7266
994.003071 68.613 -170.3915
1001.206027 68.597 -170.0538
1008.461179 68.580 -169.7116
1015.768904 68.563 -169.3625
1023.129584 68.546 -169.0030
1030.543603 68.530 -168.6273
1038.011347 68.515 -168.2305
1045.533205 68.501 -167.8144
1053.109569 68.486 -167.3858
1060.740836 68.471 -166.9493
1068.427401 68.455 -166.5065
1076.169666 68.438 -166.0581
1083.968035 68.421 -165.6049
1091.822915 68.406 -165.1509
1099.734713 68.392 -164.7052
1107.703844 68.382 -164.2750
1115.730723 68.375 -163.8586
1123.815768 68.368 -163.4460
1131.959400 68.361 -163.0249
1140.162045 68.352 -162.5868
1148.424129 68.342 -162.1263
1156.746083 68.334 -161.6436
1165.128342 68.327 -161.1460
1173.571343 68.324 -160.6426
1182.075524 68.324 -160.1383
1190.641331 68.326 -159.6323
1199.269209 68.329 -159.1186
1207.959608 68.332 -158.5927
1216.712981 68.332 -158.0550
1225.529785 68.329 -157.5128
1234.410479 68.326 -156.9770
1243.355526 68.322 -156.4507
1252.365393 68.320 -155.9227
1261.440549 68.321 -155.3787
1270.581467 68.326 -154.8146
1279.788624 68.334 -154.2391
1289.062500 68.346 -153.6655
1298.403578 68.360 -153.1027
1307.812346 68.375 -152.5503
1317.289293 68.390 -151.9990
1326.834914 68.403 -151.4343
1336.449707 68.415 -150.8452
1346.134173 68.427 -150.2338
1355.888816 68.441 -149.6119
1365.714145 68.455 -148.9899
1375.610673 68.469 -148.3742
1385.578915 68.483 -147.7693
1395.619391 68.495 -147.1764
1405.732624 68.505 -146.5888
1415.919142 68.516 -145.9947
1426.179476 68.526 -145.3872
1436.514160 68.538 -144.7671
1446.923734 68.551 -144.1363
1457.408740 68.565 -143.4932
1467.969724 68.580 -142.8328
1478.607238 68.596 -142.1510
1489.321836 68.615 -141.4501
1500.114076 68.638 -140.7348
1510.984521 68.666 -140.0062
1521.933737 68.700 -139.2642
1532.962297 68.738 -138.5104
1544.070773 68.776 -137.7473
1555.259747 68.813 -136.9709
1566.529800 68.848 -136.1704
1577.881521 68.882 -135.3411
1589.315501 68.918 -134.4893
1600.832336 68.955 -133.6228
1612.432627 68.994 -132.7422
1624.116978 69.036 -131.8445
1635.886000 69.082 -130.9297
1647.740304 69.132 -130.0023
1659.680509 69.186 -129.0629
1671.707238 69.243 -128.1049
1683.821118 69.302 -127.1247
1696.022780 69.363 -126.1227
1708.312860 69.426 -125.0985
1720.692000 69.495 -124.0487
1733.160843 69.568 -122.9696
1745.720041 69.647 -121.8604
1758.370248 69.731 -120.7220
1771.112124 69.821 -119.5514
1783.946332 69.918 -118.3434
1796.873543 70.026 -117.0970
1809.894429 70.145 -115.8176
1823.009670 70.275 -114.5165
1836.219950 70.419 -113.2046
1849.525956 70.575 -111.8850
1862.928384 70.745 -110.5556
1876.427931 70.928 -109.2183
1890.025301 71.126 -107.8829
1903.721204 71.338 -106.5613
1917.516352 71.564 -105.2611
1931.411466 71.804 -103.9885
1945.407270 72.058 -102.7542
1959.504493 72.327 -101.5718
1973.703870 72.611 -100.4522
1988.006142 72.909 -99.4007
2002.412054 73.219 -98.4194
2016.922357 73.541 -97.5136
2031.537808 73.874 -96.6926
2046.259169 74.218 -95.9635
2061.087206 74.571 -95.3290
2076.022694 74.932 -94.7917
2091.066410 75.302 -94.3591
2106.219139 75.679 -94.0394
2121.481671 76.063 -93.8364
2136.854802 76.452 -93.7492
2152.339333 76.845 -93.7776
2167.936071 77.244 -93.9239
2183.645829 77.646 -94.1920
2199.469427 78.051 -94.5848
2215.407689 78.458 -95.1069
2231.461446 78.866 -95.7651
2247.631536 79.274 -96.5672
2263.918800 79.679 -97.5176
2280.324089 80.080 -98.6175
2296.848258 80.475 -99.8677
2313.492167 80.862 -101.2690
2330.256685 81.239 -102.8200
2347.142685 81.603 -104.5166
2364.151049 81.953 -106.3551
2381.282662 82.287 -108.3317
2398.538418 82.603 -110.4393
2415.919216 82.899 -112.6673
2433.425962 83.172 -115.0042
2451.059570 83.422 -117.4377
2468.820958 83.647 -119.9545
2486.711052 83.845 -122.5395
2504.730786 84.015 -125.1758
2522.881098 84.158 -127.8469
2541.162934 84.273 -130.5371
2559.577248 84.360 -133.2304
2578.125000 84.418 -135.9090
2596.807157 84.448 -138.5547
2615.624692 84.449 -141.1479
2634.578586 84.421 -143.6645
2653.669829 84.365 -146.0731
2672.899414 84.283 -148.3341
2692.268345 84.179 -150.4031
2711.777632 84.063 -152.2401
2731.428290 83.949 -153.8291
2751.221345 83.852 -155.2047
2771.157829 83.785 -156.4667
2791.238781 83.749 -157.7537
2811.465248 83.730 -159.1751
2831.838284 83.710 -160.7579
2852.358952 83.673 -162.4540
2873.028321 83.611 -164.1863
2893.847468 83.526 -165.8870
2914.817480 83.421 -167.5127
2935.939449 83.301 -169.0432
2957.214476 83.173 -170.4745
2978.643672 83.039 -171.8121
3000.228152 82.902 -173.0653
3021.969041 82.763 -174.2432
3043.867475 82.622 -175.3524
3065.924593 82.481 -176.3969
3088.141547 82.339 -177.3793
3110.519493 82.196 -178.3005
3133.059600 82.054 -179.1621
3155.763041 81.913 -179.9666
3178.631001 81.772 179.2829
3201.664672 81.634 178.5825
3224.865254 81.498 177.9279
3248.233957 81.364 177.3152
3271.771999 81.232 176.7417
3295.480608 81.103 176.2053
3319.361019 80.977 175.7035
3343.414477 80.855 175.2331
3367.642236 80.735 174.7899
3392.045560 80.618 174.3696
3416.625721 80.504 173.9687
