* Measurement data measured by REW V5.31.3
* Source: Input device not selected, no input selected, L, volume: no control
* Format: 256k Log Swept Sine, 1 sweep at -12,0 dBFS with no timing reference
* Dated: 17.11.2024 19:53:04
* REW Settings:
*  C-weighting compensation: Off
*  Target level: 75.0 dB
* Note: 
* Measurement: Tesla New
* Smoothing: 1/12 octave
* Frequency Step: 96 ppo
* Start Frequency: 20.141602 Hz
*
* Freq(Hz) SPL(dB) Phase(degrees)
20.141602 95.841 -46.8613
20.287556 95.880 -46.9785
20.434568 95.937 -47.1496
20.582645 96.009 -47.3572
20.731796 96.092 -47.5866
20.882027 96.180 -47.8270
21.033346 96.273 -48.0711
21.185763 96.366 -48.3133
21.339284 96.459 -48.5494
21.493917 96.551 -48.7763
21.649671 96.642 -48.9920
21.806553 96.730 -49.1965
21.964572 96.818 -49.3914
22.123737 96.906 -49.5812
22.284054 96.993 -49.7721
22.445534 97.081 -49.9723
22.608183 97.169 -50.1906
22.772012 97.258 -50.4357
22.937027 97.348 -50.7145
23.103238 97.436 -51.0311
23.270654 97.524 -51.3865
23.439282 97.610 -51.7773
23.609133 97.694 -52.1966
23.780215 97.775 -52.6343
23.952536 97.854 -53.0784
24.126106 97.931 -53.5163
24.300934 98.008 -53.9363
24.477028 98.086 -54.3292
24.654399 98.167 -54.6888
24.833055 98.250 -55.0133
25.013005 98.338 -55.3044
25.194260 98.431 -55.5673
25.376828 98.528 -55.8096
25.560719 98.628 -56.0398
25.745942 98.730 -56.2663
25.932508 98.832 -56.4963
26.120426 98.934 -56.7351
26.309705 99.033 -56.9859
26.500356 99.128 -57.2501
26.692388 99.219 -57.5278
26.885812 99.306 -57.8177
27.080638 99.389 -58.1184
27.276876 99.468 -58.4280
27.474535 99.546 -58.7445
27.673627 99.621 -59.0660
27.874161 99.696 -59.3901
28.076149 99.772 -59.7147
28.279600 99.849 -60.0374
28.484526 99.927 -60.3559
28.690937 100.008 -60.6682
28.898843 100.092 -60.9725
29.108256 100.178 -61.2678
29.319186 100.265 -61.5534
29.531645 100.354 -61.8289
29.745644 100.443 -62.0941
29.961193 100.532 -62.3487
30.178304 100.620 -62.5928
30.396989 100.706 -62.8269
30.617258 100.790 -63.0523
30.839123 100.873 -63.2718
31.062596 100.955 -63.4892
31.287688 101.036 -63.7096
31.514412 101.116 -63.9385
31.742778 101.194 -64.1802
31.972800 101.271 -64.4375
32.204488 101.346 -64.7100
32.437855 101.418 -64.9943
32.672913 101.487 -65.2842
32.909674 101.554 -65.5723
33.148151 101.618 -65.8511
33.388356 101.681 -66.1156
33.630302 101.745 -66.3644
33.874001 101.810 -66.6003
34.119466 101.879 -66.8298
34.366710 101.951 -67.0623
34.615745 102.028 -67.3072
34.866585 102.108 -67.5723
35.119243 102.191 -67.8617
35.373731 102.276 -68.1754
35.630064 102.362 -68.5086
35.888254 102.448 -68.8538
36.148315 102.535 -69.2019
36.410261 102.622 -69.5446
36.674104 102.708 -69.8758
36.939860 102.795 -70.1930
37.207542 102.882 -70.4966
37.477163 102.967 -70.7892
37.748738 103.050 -71.0737
38.022281 103.130 -71.3514
38.297806 103.205 -71.6207
38.575327 103.274 -71.8779
38.854860 103.340 -72.1183
39.136419 103.403 -72.3392
39.420017 103.467 -72.5424
39.705671 103.534 -72.7360
39.993395 103.605 -72.9335
40.283203 103.682 -73.1510
40.575112 103.764 -73.4034
40.869136 103.848 -73.6996
41.165290 103.931 -74.0407
41.463591 104.012 -74.4190
41.764053 104.087 -74.8206
42.066693 104.156 -75.2280
42.371525 104.219 -75.6234
42.678567 104.277 -75.9919
42.987834 104.332 -76.3229
43.299341 104.388 -76.6121
43.613106 104.446 -76.8616
43.929145 104.509 -77.0799
44.247473 104.578 -77.2791
44.568109 104.653 -77.4720
44.891068 104.732 -77.6677
45.216367 104.815 -77.8705
45.544023 104.898 -78.0797
45.874054 104.982 -78.2939
46.206476 105.065 -78.5144
46.541307 105.147 -78.7471
46.878565 105.226 -79.0005
47.218266 105.300 -79.2798
47.560429 105.367 -79.5816
47.905072 105.426 -79.8917
48.252212 105.477 -80.1899
48.601867 105.524 -80.4573
48.954056 105.571 -80.6855
49.308798 105.625 -80.8800
49.666109 105.687 -81.0582
50.026010 105.758 -81.2411
50.388520 105.837 -81.4451
50.753656 105.919 -81.6773
51.121437 106.002 -81.9359
51.491884 106.082 -82.2139
51.865016 106.159 -82.5039
52.240851 106.233 -82.8002
52.619410 106.304 -83.0988
53.000712 106.372 -83.3947
53.384777 106.440 -83.6793
53.771625 106.507 -83.9402
54.161276 106.575 -84.1648
54.553751 106.645 -84.3465
54.949070 106.719 -84.4921
55.347254 106.796 -84.6232
55.748323 106.876 -84.7710
56.152298 106.954 -84.9641
56.559201 107.026 -85.2167
56.969052 107.091 -85.5240
57.381873 107.150 -85.8667
57.797686 107.204 -86.2220
58.216512 107.258 -86.5730
58.638373 107.316 -86.9130
59.063291 107.378 -87.2415
59.491288 107.444 -87.5589
59.922386 107.511 -87.8630
60.356608 107.577 -88.1496
60.793977 107.642 -88.4174
61.234515 107.707 -88.6700
61.678246 107.772 -88.9151
62.125192 107.836 -89.1607
62.575377 107.900 -89.4108
63.028824 107.964 -89.6649
63.485557 108.027 -89.9205
63.945599 108.091 -90.1773
64.408975 108.155 -90.4387
64.875709 108.220 -90.7096
65.345825 108.285 -90.9926
65.819348 108.350 -91.2856
66.296302 108.415 -91.5832
66.776713 108.480 -91.8793
67.260604 108.545 -92.1692
67.748002 108.609 -92.4504
68.238932 108.672 -92.7223
68.733420 108.735 -92.9858
69.231490 108.797 -93.2441
69.733170 108.859 -93.5019
70.238485 108.922 -93.7632
70.747463 108.985 -94.0306
71.260128 109.049 -94.3035
71.776508 109.113 -94.5800
72.296630 109.177 -94.8574
72.820521 109.240 -95.1331
73.348209 109.303 -95.4053
73.879720 109.366 -95.6732
74.415083 109.428 -95.9377
74.954326 109.490 -96.2008
75.497475 109.552 -96.4640
76.044561 109.613 -96.7278
76.595612 109.674 -96.9913
77.150655 109.733 -97.2535
77.709720 109.793 -97.5138
78.272837 109.854 -97.7725
78.840034 109.915 -98.0306
79.411342 109.976 -98.2898
79.986789 110.038 -98.5518
80.566406 110.100 -98.8183
81.150224 110.162 -99.0902
81.738272 110.223 -99.3677
82.330581 110.285 -99.6500
82.927182 110.345 -99.9353
83.528107 110.405 -100.2214
84.133386 110.465 -100.5062
84.743051 110.525 -100.7883
85.357134 110.585 -101.0656
85.975667 110.644 -101.3360
86.598682 110.704 -101.5974
87.226212 110.763 -101.8497
87.858289 110.823 -102.0957
88.494946 110.883 -102.3411
89.136217 110.943 -102.5920
89.782135 111.004 -102.8533
90.432733 111.066 -103.1271
91.088046 111.129 -103.4134
91.748108 111.193 -103.7100
92.412952 111.255 -104.0128
93.082615 111.317 -104.3165
93.757130 111.377 -104.6170
94.436533 111.436 -104.9141
95.120859 111.493 -105.2104
95.810144 111.551 -105.5096
96.504423 111.608 -105.8133
97.203734 111.665 -106.1200
97.908112 111.723 -106.4263
98.617595 111.781 -106.7287
99.332219 111.838 -107.0250
100.052021 111.895 -107.3146
100.777039 111.951 -107.5977
101.507311 112.007 -107.8767
102.242875 112.061 -108.1555
102.983769 112.115 -108.4386
103.730032 112.169 -108.7292
104.481702 112.223 -109.0290
105.238820 112.277 -109.3374
106.001424 112.332 -109.6524
106.769554 112.386 -109.9708
107.543250 112.441 -110.2885
108.322553 112.495 -110.6025
109.107503 112.549 -110.9114
109.898141 112.603 -111.2165
110.694508 112.657 -111.5208
111.496646 112.711 -111.8278
112.304596 112.765 -112.1395
113.118402 112.820 -112.4555
113.938104 112.875 -112.7746
114.763747 112.930 -113.0954
115.595372 112.985 -113.4173
116.433024 113.041 -113.7403
117.276746 113.097 -114.0653
118.126581 113.152 -114.3937
118.982575 113.207 -114.7258
119.844772 113.261 -115.0611
120.713217 113.315 -115.3983
121.587954 113.368 -115.7360
122.469031 113.421 -116.0735
123.356492 113.473 -116.4112
124.250384 113.525 -116.7502
125.150753 113.577 -117.0903
126.057647 113.628 -117.4302
126.971113 113.679 -117.7696
127.891198 113.730 -118.1102
128.817950 113.781 -118.4527
129.751418 113.830 -118.7959
130.691651 113.880 -119.1389
131.638696 113.929 -119.4815
132.592604 113.978 -119.8238
133.553425 114.027 -120.1656
134.521208 114.076 -120.5061
135.496004 114.124 -120.8442
136.477864 114.171 -121.1808
137.466839 114.219 -121.5181
138.462981 114.265 -121.8590
139.466340 114.311 -122.2060
140.476971 114.357 -122.5604
141.494925 114.402 -122.9221
142.520256 114.447 -123.2897
143.553016 114.490 -123.6612
144.593260 114.533 -124.0337
145.641043 114.577 -124.4047
146.696418 114.622 -124.7734
147.759441 114.668 -125.1416
148.830166 114.714 -125.5117
149.908651 114.759 -125.8850
150.994951 114.804 -126.2616
152.089123 114.849 -126.6404
153.191223 114.893 -127.0203
154.301310 114.937 -127.4006
155.419441 114.979 -127.7812
156.545674 115.021 -128.1630
157.680069 115.063 -128.5469
158.822683 115.104 -128.9338
159.973578 115.145 -129.3233
161.132813 115.185 -129.7143
162.300447 115.225 -130.1054
163.476543 115.265 -130.4961
164.661162 115.303 -130.8863
165.854364 115.341 -131.2764
167.056213 115.379 -131.6666
168.266772 115.416 -132.0574
169.486102 115.453 -132.4491
170.714268 115.489 -132.8422
171.951334 115.525 -133.2372
173.197364 115.560 -133.6345
174.452424 115.595 -134.0343
175.716578 115.629 -134.4368
176.989893 115.663 -134.8417
178.272434 115.696 -135.2485
179.564270 115.729 -135.6565
180.865467 115.761 -136.0656
182.176092 115.793 -136.4762
183.496216 115.824 -136.8884
184.825905 115.855 -137.3026
186.165229 115.886 -137.7186
187.514259 115.915 -138.1358
188.873065 115.944 -138.5538
190.241717 115.972 -138.9726
191.620287 116.000 -139.3924
193.008847 116.027 -139.8134
194.407468 116.053 -140.2361
195.816225 116.078 -140.6604
197.235190 116.103 -141.0855
198.664438 116.127 -141.5100
200.104042 116.150 -141.9328
201.554078 116.173 -142.3537
203.014622 116.195 -142.7733
204.485750 116.216 -143.1924
205.967538 116.237 -143.6117
207.460064 116.257 -144.0317
208.963405 116.277 -144.4527
210.477640 116.296 -144.8748
212.002848 116.315 -145.2976
213.539108 116.332 -145.7204
215.086500 116.349 -146.1424
216.645105 116.364 -146.5625
218.215005 116.379 -146.9797
219.796281 116.394 -147.3934
221.389015 116.408 -147.8040
222.993292 116.422 -148.2126
224.609193 116.436 -148.6204
226.236804 116.450 -149.0284
227.876209 116.463 -149.4370
229.527494 116.476 -149.8464
231.190745 116.488 -150.2563
232.866048 116.500 -150.6665
234.553491 116.510 -151.0768
236.253163 116.520 -151.4870
237.965150 116.530 -151.8972
239.689544 116.539 -152.3071
241.426433 116.548 -152.7169
243.175909 116.556 -153.1266
244.938062 116.563 -153.5368
246.712984 116.570 -153.9478
248.500768 116.576 -154.3596
250.301507 116.581 -154.7719
252.115295 116.585 -155.1840
253.942226 116.589 -155.5953
255.782396 116.592 -156.0058
257.635901 116.594 -156.4156
259.502837 116.596 -156.8252
261.383301 116.596 -157.2354
263.277392 116.596 -157.6466
265.185209 116.594 -158.0592
267.106850 116.592 -158.4723
269.042417 116.589 -158.8846
270.992009 116.584 -159.2946
272.955729 116.579 -159.7013
274.933678 116.572 -160.1041
276.925961 116.564 -160.5026
278.932681 116.555 -160.8958
280.953942 116.545 -161.2829
282.989850 116.533 -161.6629
285.040511 116.522 -162.0357
287.106032 116.510 -162.4020
289.186521 116.497 -162.7626
291.282086 116.484 -163.1186
293.392836 116.471 -163.4708
295.518881 116.458 -163.8192
297.660333 116.443 -164.1631
299.817302 116.429 -164.5018
301.989902 116.414 -164.8346
304.178245 116.398 -165.1615
306.382446 116.382 -165.4834
308.602620 116.366 -165.8016
310.838882 116.350 -166.1167
313.091348 116.334 -166.4290
315.360137 116.318 -166.7383
317.645367 116.302 -167.0443
319.947156 116.287 -167.3467
322.265625 116.271 -167.6456
324.600895 116.256 -167.9413
326.953086 116.240 -168.2348
329.322323 116.223 -168.5275
331.708729 116.206 -168.8205
334.112427 116.189 -169.1135
336.533543 116.171 -169.4055
338.972204 116.152 -169.6954
341.428536 116.133 -169.9827
343.902668 116.114 -170.2670
346.394729 116.094 -170.5482
348.904848 116.074 -170.8263
351.433156 116.053 -171.1017
353.979786 116.032 -171.3751
356.544869 116.011 -171.6468
359.128540 115.989 -171.9168
361.730934 115.968 -172.1849
364.352185 115.946 -172.4506
366.992431 115.923 -172.7133
369.651810 115.900 -172.9720
372.330459 115.876 -173.2267
375.028519 115.852 -173.4773
377.746130 115.828 -173.7242
380.483434 115.804 -173.9678
383.240574 115.779 -174.2082
386.017693 115.754 -174.4455
388.814937 115.728 -174.6797
391.632450 115.702 -174.9112
394.470380 115.675 -175.1404
397.328875 115.648 -175.3676
400.208084 115.621 -175.5923
403.108157 115.593 -175.8134
406.029245 115.566 -176.0302
408.971500 115.538 -176.2425
411.935076 115.509 -176.4506
414.920127 115.481 -176.6551
417.926810 115.453 -176.8567
420.955280 115.425 -177.0562
424.005695 115.397 -177.2545
427.078215 115.368 -177.4521
430.173000 115.339 -177.6494
433.290211 115.310 -177.8464
436.430010 115.279 -178.0427
439.592562 115.249 -178.2371
442.778031 115.217 -178.4288
445.986583 115.185 -178.6171
449.218386 115.152 -178.8023
452.473607 115.118 -178.9850
455.752418 115.084 -179.1656
459.054987 115.048 -179.3438
462.381489 115.011 -179.5182
465.732096 114.974 -179.6871
469.106983 114.935 -179.8480
472.506325 114.897 -179.9989
475.930301 114.858 179.8611
479.379088 114.819 179.7316
482.852867 114.780 179.6113
486.351817 114.742 179.4988
489.876123 114.703 179.3934
493.425968 114.665 179.2946
497.001536 114.627 179.2023
500.603014 114.590 179.1154
504.230589 114.553 179.0319
507.884452 114.516 178.9503
511.564792 114.480 178.8694
515.271802 114.443 178.7884
519.005673 114.407 178.7067
522.766602 114.371 178.6240
526.554785 114.334 178.5403
530.370418 114.297 178.4561
534.213700 114.258 178.3719
538.084833 114.220 178.2885
541.984018 114.180 178.2064
545.911457 114.139 178.1275
549.867357 114.096 178.0541
553.851922 114.052 177.9888
557.865362 114.006 177.9339
561.907884 113.959 177.8910
565.979700 113.911 177.8610
570.081022 113.863 177.8437
574.212064 113.814 177.8380
578.373042 113.766 177.8427
582.564171 113.718 177.8572
586.785671 113.670 177.8809
591.037762 113.622 177.9135
595.320665 113.573 177.9552
599.634604 113.524 178.0071
603.979804 113.474 178.0706
608.356491 113.424 178.1471
612.764893 113.373 178.2379
617.205240 113.321 178.3439
621.677763 113.269 178.4666
626.182696 113.216 178.6082
630.720274 113.163 178.7719
635.290733 113.110 178.9616
639.894312 113.057 179.1824
644.531250 113.006 179.4392
649.201789 112.958 179.7362
653.906173 112.914 -179.9249
658.644647 112.875 -179.5460
663.417457 112.844 -179.1331
668.224854 112.821 -178.6965
673.067086 112.809 -178.2502
677.944408 112.806 -177.8106
682.857073 112.814 -177.3953
687.805336 112.831 -177.0215
692.789457 112.856 -176.7044
697.809695 112.886 -176.4544
702.866312 112.918 -176.2749
707.959571 112.951 -176.1630
713.089738 112.981 -176.1115
718.257080 113.007 -176.1107
723.461867 113.028 -176.1503
728.704370 113.044 -176.2191
733.984862 113.053 -176.3065
739.303619 113.057 -176.4034
744.660918 113.056 -176.5033
750.057038 113.049 -176.6014
755.492260 113.038 -176.6938
760.966869 113.024 -176.7774
766.481148 113.007 -176.8507
772.035387 112.988 -176.9137
777.629873 112.966 -176.9669
783.264900 112.943 -177.0106
788.940760 112.918 -177.0446
794.657750 112.893 -177.0682
800.416168 112.866 -177.0805
806.216313 112.839 -177.0812
812.058489 112.811 -177.0704
817.943000 112.782 -177.0487
823.870152 112.752 -177.0166
829.840255 112.722 -176.9752
835.853619 112.691 -176.9256
841.910559 112.660 -176.8685
848.011390 112.630 -176.8039
854.156430 112.600 -176.7320
860.346000 112.570 -176.6536
866.580422 112.540 -176.5703
872.860020 112.510 -176.4832
879.185124 112.480 -176.3925
885.556062 112.450 -176.2977
891.973166 112.420 -176.1982
898.436771 112.389 -176.0939
904.947215 112.359 -175.9851
911.504835 112.328 -175.8722
918.109975 112.297 -175.7553
924.762978 112.267 -175.6348
931.464192 112.236 -175.5106
938.213966 112.206 -175.3830
945.012651 112.175 -175.2523
951.860602 112.144 -175.1193
958.758176 112.113 -174.9843
965.705733 112.082 -174.8469
972.703635 112.050 -174.7067
979.752246 112.018 -174.5639
986.851935 111.985 -174.4178
994.003071 111.951 -174.2677
1001.206027 111.916 -174.1134
1008.461179 111.881 -173.9559
1015.768904 111.844 -173.7973
1023.129584 111.806 -173.6378
1030.543603 111.767 -173.4753
1038.011347 111.724 -173.3041
1045.533205 111.680 -173.1178
1053.109569 111.633 -172.9102
1060.740836 111.585 -172.6773
1068.427401 111.535 -172.4159
1076.169666 111.485 -172.1228
1083.968035 111.436 -171.7958
1091.822915 111.389 -171.4367
1099.734713 111.345 -171.0513
1107.703844 111.305 -170.6476
1115.730723 111.268 -170.2330
1123.815768 111.234 -169.8123
1131.959400 111.203 -169.3881
1140.162045 111.175 -168.9615
1148.424129 111.149 -168.5335
1156.746083 111.125 -168.1047
1165.128342 111.102 -167.6751
1173.571343 111.080 -167.2441
1182.075524 111.061 -166.8112
1190.641331 111.043 -166.3767
1199.269209 111.027 -165.9424
1207.959608 111.012 -165.5105
1216.712981 110.999 -165.0822
1225.529785 110.987 -164.6580
1234.410479 110.976 -164.2385
1243.355526 110.966 -163.8245
1252.365393 110.955 -163.4158
1261.440549 110.945 -163.0113
1270.581467 110.935 -162.6092
1279.788624 110.924 -162.2095
1289.062500 110.912 -161.8127
1298.403578 110.900 -161.4182
1307.812346 110.886 -161.0242
1317.289293 110.871 -160.6272
1326.834914 110.853 -160.2234
1336.449707 110.834 -159.8075
1346.134173 110.814 -159.3734
1355.888816 110.793 -158.9155
1365.714145 110.772 -158.4311
1375.610673 110.752 -157.9211
1385.578915 110.734 -157.3891
1395.619391 110.718 -156.8396
1405.732624 110.705 -156.2773
1415.919142 110.693 -155.7053
1426.179476 110.685 -155.1266
1436.514160 110.678 -154.5433
1446.923734 110.673 -153.9579
1457.408740 110.670 -153.3729
1467.969724 110.669 -152.7893
1478.607238 110.668 -152.2058
1489.321836 110.668 -151.6204
1500.114076 110.668 -151.0304
1510.984521 110.667 -150.4330
1521.933737 110.667 -149.8268
1532.962297 110.668 -149.2112
1544.070773 110.668 -148.5851
1555.259747 110.668 -147.9464
1566.529800 110.669 -147.2919
1577.881521 110.670 -146.6178
1589.315501 110.672 -145.9225
1600.832336 110.675 -145.2071
1612.432627 110.679 -144.4740
1624.116978 110.684 -143.7247
1635.886000 110.691 -142.9583
1647.740304 110.698 -142.1717
1659.680509 110.706 -141.3606
1671.707238 110.716 -140.5220
1683.821118 110.727 -139.6557
1696.022780 110.741 -138.7615
1708.312860 110.758 -137.8371
1720.692000 110.777 -136.8785
1733.160843 110.800 -135.8823
1745.720041 110.827 -134.8482
1758.370248 110.860 -133.7791
1771.112124 110.898 -132.6781
1783.946332 110.942 -131.5462
1796.873543 110.993 -130.3806
1809.894429 111.050 -129.1776
1823.009670 111.115 -127.9360
1836.219950 111.189 -126.6582
1849.525956 111.273 -125.3485
1862.928384 111.368 -124.0094
1876.427931 111.475 -122.6428
1890.025301 111.595 -121.2546
1903.721204 111.729 -119.8543
1917.516352 111.878 -118.4517
1931.411466 112.042 -117.0532
1945.407270 112.221 -115.6636
1959.504493 112.417 -114.2919
1973.703870 112.629 -112.9523
1988.006142 112.859 -111.6613
2002.412054 113.103 -110.4339
2016.922357 113.362 -109.2794
2031.537808 113.634 -108.2013
2046.259169 113.919 -107.2038
2061.087206 114.214 -106.2938
2076.022694 114.520 -105.4766
2091.066410 114.835 -104.7535
2106.219139 115.159 -104.1228
2121.481671 115.492 -103.5858
2136.854802 115.834 -103.1499
2152.339333 116.185 -102.8248
2167.936071 116.543 -102.6185
2183.645829 116.908 -102.5383
2199.469427 117.279 -102.5955
2215.407689 117.653 -102.8041
2231.461446 118.029 -103.1738
2247.631536 118.402 -103.7051
2263.918800 118.770 -104.3939
2280.324089 119.131 -105.2377
2296.848258 119.483 -106.2328
2313.492167 119.824 -107.3715
2330.256685 120.152 -108.6433
2347.142685 120.466 -110.0386
2364.151049 120.764 -111.5493
2381.282662 121.046 -113.1670
2398.538418 121.309 -114.8808
2415.919216 121.554 -116.6798
2433.425962 121.779 -118.5524
2451.059570 121.984 -120.4875
2468.820958 122.169 -122.4733
2486.711052 122.332 -124.4977
2504.730786 122.475 -126.5483
2522.881098 122.597 -128.6137
2541.162934 122.698 -130.6828
2559.577248 122.780 -132.7444
2578.125000 122.843 -134.7890
2596.807157 122.889 -136.8100
2615.624692 122.917 -138.8019
2634.578586 122.930 -140.7587
2653.669829 122.926 -142.6745
2672.899414 122.907 -144.5441
2692.268345 122.874 -146.3617
2711.777632 122.827 -148.1203
2731.428290 122.768 -149.8130
2751.221345 122.697 -151.4350
2771.157829 122.616 -152.9836
2791.238781 122.526 -154.4564
2811.465248 122.429 -155.8527
2831.838284 122.327 -157.1749
