* Measurement data measured by REW V5.40 beta 98
* Source: Микрофон (HiBy Digital D1), MICROPHONE (Общая громкость), R, volume: 0,250
* Format: 256k Log Swept Sine, 1 sweep at -15,0 dBFS with no timing reference
* Dated: 03.10.2025 15:53:31
* REW Settings:
*  C-weighting compensation: Off
*  Target level: 75.0 dB
* Note: 
* Measurement: GRAPHENE68
* Smoothing: 1/12 octave
* Frequency Step: 96 ppo
* Start Frequency: 0.36621094 Hz
*
* Freq(Hz) SPL(dB) Phase(degrees)
0.366211 30.766 -152.1326
0.368865 30.781 -152.1808
0.371538 30.804 -152.2524
0.374230 30.832 -152.3412
0.376942 30.864 -152.4419
0.379673 30.898 -152.5507
0.382424 30.934 -152.6650
0.385196 30.970 -152.7832
0.387987 31.007 -152.9043
0.390798 31.045 -153.0279
0.393630 31.082 -153.1537
0.396483 31.121 -153.2816
0.399356 31.159 -153.4114
0.402250 31.198 -153.5431
0.405165 31.237 -153.6767
0.408101 31.276 -153.8121
0.411058 31.316 -153.9494
0.414037 31.356 -154.0886
0.417037 31.396 -154.2295
0.420059 31.436 -154.3723
0.423103 31.477 -154.5169
0.426169 31.518 -154.6632
0.429257 31.560 -154.8113
0.432368 31.601 -154.9612
0.435501 31.643 -155.1129
0.438656 31.686 -155.2663
0.441835 31.728 -155.4214
0.445037 31.771 -155.5782
0.448262 31.814 -155.7367
0.451510 31.858 -155.8970
0.454782 31.902 -156.0589
0.458077 31.946 -156.2224
0.461397 31.990 -156.3877
0.464740 32.035 -156.5546
0.468108 32.080 -156.7231
0.471500 32.126 -156.8933
0.474917 32.171 -157.0650
0.478358 32.217 -157.2384
0.481825 32.264 -157.4135
0.485316 32.311 -157.5901
0.488833 32.358 -157.7683
0.492375 32.405 -157.9481
0.495943 32.453 -158.1295
0.499537 32.501 -158.3125
0.503157 32.550 -158.4971
0.506803 32.598 -158.6833
0.510475 32.648 -158.8711
0.514175 32.697 -159.0605
0.517900 32.747 -159.2515
0.521653 32.797 -159.4442
0.525434 32.848 -159.6384
0.529241 32.899 -159.8343
0.533076 32.950 -160.0318
0.536939 33.002 -160.2310
0.540830 33.054 -160.4319
0.544749 33.107 -160.6345
0.548696 33.160 -160.8388
0.552673 33.213 -161.0449
0.556677 33.267 -161.2527
0.560711 33.321 -161.4624
0.564774 33.375 -161.6738
0.568867 33.430 -161.8872
0.572989 33.485 -162.1024
0.577141 33.541 -162.3197
0.581324 33.597 -162.5389
0.585536 33.653 -162.7601
0.589779 33.710 -162.9834
0.594053 33.767 -163.2089
0.598358 33.825 -163.4366
0.602694 33.883 -163.6665
0.607061 33.942 -163.8988
0.611460 34.001 -164.1335
0.615891 34.060 -164.3706
0.620354 34.120 -164.6103
0.624849 34.180 -164.8526
0.629377 34.241 -165.0976
0.633938 34.302 -165.3454
0.638532 34.363 -165.5962
0.643159 34.425 -165.8499
0.647819 34.488 -166.1068
0.652514 34.551 -166.3669
0.657242 34.614 -166.6303
0.662005 34.678 -166.8972
0.666802 34.742 -167.1677
0.671634 34.807 -167.4420
0.676501 34.872 -167.7201
0.681403 34.938 -168.0023
0.686341 35.004 -168.2887
0.691314 35.071 -168.5795
0.696324 35.137 -168.8749
0.701370 35.205 -169.1750
0.706452 35.272 -169.4801
0.711571 35.340 -169.7904
0.716728 35.407 -170.1061
0.721921 35.473 -170.4275
0.727153 35.538 -170.7549
0.732422 35.600 -171.0886
0.737729 35.661 -171.4287
0.743075 35.719 -171.7755
0.748460 35.776 -172.1290
0.753883 35.831 -172.4891
0.759346 35.886 -172.8559
0.764849 35.940 -173.2291
0.770391 35.993 -173.6086
0.775974 36.046 -173.9943
0.781597 36.099 -174.3859
0.787261 36.151 -174.7832
0.792966 36.203 -175.1861
0.798712 36.255 -175.5944
0.804500 36.307 -176.0078
0.810329 36.358 -176.4261
0.816201 36.409 -176.8492
0.822116 36.460 -177.2769
0.828073 36.510 -177.7090
0.834074 36.560 -178.1452
0.840118 36.610 -178.5854
0.846206 36.660 -179.0295
0.852338 36.709 -179.4773
0.858514 36.758 -179.9285
0.864735 36.807 179.6170
0.871001 36.856 179.1593
0.877313 36.904 178.6985
0.883670 36.952 178.2350
0.890074 37.000 177.7686
0.896524 37.047 177.2997
0.903020 37.094 176.8283
0.909564 37.141 176.3545
0.916155 37.188 175.8784
0.922794 37.235 175.4001
0.929481 37.281 174.9197
0.936216 37.327 174.4373
0.943000 37.373 173.9529
0.949834 37.418 173.4666
0.956717 37.464 172.9783
0.963649 37.509 172.4881
0.970632 37.554 171.9961
0.977666 37.599 171.5021
0.984750 37.644 171.0063
0.991886 37.688 170.5085
0.999074 37.733 170.0088
1.006314 37.777 169.5070
1.013606 37.821 169.0029
1.020951 37.865 168.4967
1.028349 37.909 167.9881
1.035801 37.953 167.4769
1.043307 37.997 166.9630
1.050867 38.040 166.4460
1.058482 38.084 165.9258
1.066152 38.128 165.4019
1.073878 38.171 164.8735
1.081660 38.215 164.3399
1.089498 38.258 163.8000
1.097393 38.302 163.2522
1.105345 38.345 162.6950
1.113355 38.388 162.1268
1.121423 38.430 161.5463
1.129549 38.473 160.9528
1.137734 38.514 160.3459
1.145979 38.556 159.7256
1.154283 38.596 159.0921
1.162647 38.637 158.4456
1.171072 38.677 157.7865
1.179558 38.716 157.1153
1.188106 38.755 156.4324
1.196715 38.794 155.7385
1.205387 38.831 155.0341
1.214122 38.869 154.3196
1.222920 38.906 153.5957
1.231782 38.942 152.8631
1.240708 38.978 152.1223
1.249699 39.014 151.3739
1.258754 39.048 150.6186
1.267876 39.083 149.8571
1.277063 39.117 149.0899
1.286318 39.150 148.3179
1.295639 39.183 147.5416
1.305027 39.215 146.7617
1.314484 39.247 145.9789
1.324009 39.278 145.1940
1.333604 39.309 144.4075
1.343268 39.339 143.6202
1.353002 39.368 142.8328
1.362806 39.398 142.0457
1.372681 39.426 141.2599
1.382628 39.454 140.4758
1.392647 39.482 139.6939
1.402739 39.509 138.9148
1.412904 39.535 138.1388
1.423142 39.561 137.3658
1.433455 39.587 136.5957
1.443843 39.612 135.8274
1.454305 39.636 135.0594
1.464844 39.660 134.2892
1.475459 39.683 133.5140
1.486150 39.705 132.7309
1.496920 39.727 131.9374
1.507767 39.748 131.1319
1.518693 39.768 130.3137
1.529698 39.787 129.4823
1.540783 39.805 128.6379
1.551948 39.823 127.7807
1.563194 39.840 126.9113
1.574521 39.855 126.0302
1.585931 39.870 125.1381
1.597423 39.884 124.2357
1.608999 39.897 123.3237
1.620658 39.909 122.4030
1.632402 39.920 121.4742
1.644232 39.930 120.5384
1.656146 39.939 119.5963
1.668147 39.947 118.6489
1.680235 39.954 117.6969
1.692411 39.960 116.7414
1.704675 39.965 115.7832
1.717028 39.968 114.8232
1.729470 39.971 113.8623
1.742003 39.972 112.9014
1.754626 39.973 111.9410
1.767341 39.972 110.9817
1.780147 39.969 110.0235
1.793047 39.966 109.0661
1.806040 39.961 108.1082
1.819128 39.956 107.1473
1.832310 39.948 106.1801
1.845587 39.940 105.2022
1.858961 39.930 104.2094
1.872432 39.919 103.1982
1.886001 39.906 102.1663
1.899667 39.892 101.1126
1.913433 39.877 100.0367
1.927299 39.860 98.9387
1.941265 39.841 97.8193
1.955332 39.821 96.6795
1.969501 39.799 95.5206
1.983773 39.776 94.3440
1.998148 39.751 93.1513
2.012627 39.724 91.9443
2.027212 39.695 90.7252
2.041902 39.664 89.4958
2.056698 39.631 88.2586
2.071602 39.597 87.0159
2.086614 39.560 85.7702
2.101734 39.521 84.5238
2.116964 39.481 83.2791
2.132304 39.437 82.0378
2.147756 39.392 80.8012
2.163320 39.345 79.5692
2.178996 39.295 78.3401
2.194786 39.243 77.1100
2.210690 39.188 75.8734
2.226710 39.131 74.6236
2.242845 39.072 73.3549
2.259098 39.011 72.0628
2.275468 38.947 70.7442
2.291957 38.880 69.3974
2.308566 38.811 68.0220
2.325295 38.739 66.6181
2.342145 38.665 65.1867
2.359117 38.587 63.7292
2.376212 38.507 62.2477
2.393431 38.423 60.7446
2.410775 38.336 59.2229
2.428244 38.246 57.6861
2.445840 38.153 56.1379
2.463564 38.056 54.5824
2.481416 37.956 53.0234
2.499397 37.851 51.4644
2.517509 37.743 49.9078
2.535752 37.631 48.3539
2.554127 37.515 46.8002
2.572635 37.396 45.2411
2.591277 37.272 43.6682
2.610055 37.144 42.0728
2.628968 37.011 40.4469
2.648019 36.875 38.7841
2.667208 36.734 37.0798
2.686535 36.589 35.3309
2.706003 36.440 33.5358
2.725612 36.286 31.6942
2.745363 36.127 29.8070
2.765257 35.964 27.8766
2.785295 35.795 25.9064
2.805478 35.622 23.9011
2.825808 35.444 21.8666
2.846285 35.260 19.8092
2.866910 35.070 17.7351
2.887685 34.875 15.6490
2.908611 34.673 13.5523
2.929688 34.465 11.4417
2.950917 34.249 9.3082
2.972301 34.026 7.1390
2.993839 33.795 4.9196
3.015534 33.556 2.6362
3.037386 33.310 0.2766
3.059396 33.057 -2.1691
3.081565 32.798 -4.7085
3.103896 32.534 -7.3466
3.126388 32.265 -10.0853
3.149043 31.992 -12.9234
3.171862 31.717 -15.8561
3.194847 31.440 -18.8755
3.217998 31.162 -21.9714
3.241317 30.883 -25.1336
3.264805 30.604 -28.3549
3.288463 30.323 -31.6363
3.312293 30.041 -34.9900
3.336295 29.755 -38.4398
3.360471 29.465 -42.0167
3.384822 29.172 -45.7537
3.409350 28.875 -49.6815
3.434056 28.578 -53.8251
3.458940 28.282 -58.2003
3.484005 27.990 -62.8118
3.509252 27.705 -67.6492
3.534681 27.430 -72.6866
3.560295 27.170 -77.8839
3.586094 26.927 -83.1914
3.612081 26.706 -88.5603
3.638255 26.509 -93.9557
3.664620 26.337 -99.3677
3.691175 26.193 -104.8148
3.717923 26.077 -110.3323
3.744864 25.986 -115.9542
3.772001 25.920 -121.6985
3.799335 25.876 -127.5588
3.826866 25.851 -133.5027
3.854597 25.843 -139.4753
3.882529 25.849 -145.4083
3.910664 25.865 -151.2318
3.939002 25.891 -156.8882
3.967546 25.923 -162.3447
3.996296 25.961 -167.6013
4.025255 26.005 -172.6933
4.054423 26.054 -177.6815
4.083804 26.110 177.3671
4.113396 26.174 172.4008
4.143204 26.245 167.3945
4.173227 26.324 162.3499
4.203468 26.409 157.2899
4.233928 26.498 152.2499
4.264609 26.592 147.2668
4.295512 26.688 142.3697
4.326639 26.784 137.5702
4.357992 26.881 132.8568
4.389572 26.978 128.1932
4.421380 27.073 123.5269
4.453419 27.169 118.8051
4.485691 27.264 113.9937
4.518196 27.361 109.0858
4.550936 27.461 104.1003
4.583914 27.564 99.0737
4.617131 27.673 94.0497
4.650589 27.787 89.0682
4.684289 27.910 84.1550
4.718233 28.040 79.3152
4.752424 28.180 74.5324
4.786862 28.329 69.7756
4.821549 28.488 65.0150
4.856488 28.656 60.2377
4.891680 28.832 55.4537
4.927127 29.014 50.6915
4.962831 29.202 45.9892
4.998794 29.394 41.3832
5.035017 29.589 36.8994
5.071503 29.786 32.5471
5.108253 29.985 28.3173
5.145270 30.186 24.1874
5.182555 30.389 20.1312
5.220110 30.592 16.1327
5.257937 30.797 12.1913
5.296038 31.000 8.3199
5.334415 31.200 4.5383
5.373071 31.397 0.8654
5.412006 31.587 -2.6869
5.451224 31.770 -6.1183
5.490725 31.945 -9.4412
5.530514 32.111 -12.6759
5.570590 32.269 -15.8422
5.610957 32.418 -18.9507
5.651616 32.558 -22.0004
5.692570 32.689 -24.9816
5.733821 32.808 -27.8809
5.775370 32.916 -30.6866
5.817221 33.012 -33.3943
5.859375 33.096 -36.0083
5.901834 33.166 -38.5410
5.944602 33.223 -41.0055
5.987679 33.266 -43.4093
6.031068 33.296 -45.7510
6.074771 33.311 -48.0214
6.118792 33.312 -50.2075
6.163131 33.297 -52.2966
6.207792 33.267 -54.2808
6.252776 33.221 -56.1588
6.298086 33.159 -57.9346
6.343725 33.080 -59.6113
6.389694 32.985 -61.1867
6.435996 32.874 -62.6519
6.482634 32.748 -63.9919
6.529610 32.606 -65.1884
6.576926 32.449 -66.2231
6.624585 32.277 -67.0804
6.672590 32.089 -67.7484
6.720942 31.889 -68.2169
6.769645 31.681 -68.4752
6.818700 31.469 -68.5099
6.868111 31.259 -68.3051
6.917881 31.057 -67.8425
6.968010 30.866 -67.1042
7.018504 30.691 -66.0782
7.069362 30.535 -64.7646
7.120590 30.405 -63.1815
7.172189 30.307 -61.3653
7.224161 30.252 -59.3675
7.276511 30.247 -57.2485
7.329239 30.298 -55.0703
7.382350 30.407 -52.8939
7.435845 30.570 -50.7808
7.489729 30.780 -48.7944
7.544002 31.029 -46.9948
7.598669 31.306 -45.4309
7.653732 31.605 -44.1346
7.709194 31.918 -43.1185
7.765058 32.241 -42.3784
7.821327 32.570 -41.9009
7.878004 32.897 -41.6694
7.935091 33.218 -41.6671
7.992592 33.525 -41.8789
8.050510 33.814 -42.2902
8.108847 34.082 -42.8851
8.167607 34.328 -43.6443
8.226793 34.551 -44.5455
8.286408 34.748 -45.5654
8.346454 34.919 -46.6846
8.406936 35.063 -47.8892
8.467856 35.178 -49.1694
8.529218 35.263 -50.5151
8.591024 35.318 -51.9105
8.653278 35.342 -53.3347
8.715983 35.333 -54.7659
8.779143 35.291 -56.1862
8.842760 35.215 -57.5821
8.906839 35.103 -58.9401
8.971381 34.956 -60.2396
9.036392 34.770 -61.4507
9.101873 34.547 -62.5380
9.167829 34.283 -63.4637
9.234263 33.980 -64.1906
9.301178 33.639 -64.6760
9.368578 33.264 -64.8662
9.436467 32.858 -64.6926
9.504847 32.428 -64.0746
9.573723 31.982 -62.9251
9.643099 31.534 -61.1607
9.712976 31.106 -58.7152
9.783361 30.729 -55.5580
9.854255 30.438 -51.7195
9.925663 30.261 -47.3160
9.997588 30.217 -42.5638
10.070035 30.306 -37.7632
10.143007 30.518 -33.2380
10.216507 30.837 -29.2564
10.290540 31.239 -25.9806
10.365109 31.704 -23.4646
10.440219 32.205 -21.6877
10.515873 32.719 -20.5885
10.592076 33.227 -20.0890
10.668830 33.713 -20.1063
10.746141 34.169 -20.5582
10.824012 34.587 -21.3679
10.902447 34.963 -22.4684
10.981451 35.293 -23.8051
11.061027 35.575 -25.3337
11.141180 35.813 -27.0140
11.221913 36.008 -28.8060
11.303232 36.166 -30.6730
11.385140 36.289 -32.5847
11.467641 36.380 -34.5161
11.550741 36.441 -36.4412
11.634442 36.473 -38.3313
11.718750 36.478 -40.1582
11.803669 36.457 -41.8976
11.889203 36.410 -43.5283
11.975357 36.341 -45.0283
12.062136 36.252 -46.3773
12.149543 36.148 -47.5609
12.237583 36.035 -48.5736
12.326262 35.924 -49.4124
12.415583 35.824 -50.0751
12.505552 35.747 -50.5645
12.596172 35.699 -50.8962
12.687449 35.686 -51.1017
12.779387 35.711 -51.2238
12.871992 35.774 -51.3107
12.965268 35.875 -51.4133
13.059220 36.011 -51.5836
13.153852 36.178 -51.8701
13.249170 36.371 -52.3117
13.345179 36.584 -52.9348
13.441884 36.811 -53.7557
13.539289 37.044 -54.7816
13.637401 37.276 -56.0102
13.736223 37.498 -57.4295
13.835761 37.704 -59.0214
13.936021 37.886 -60.7647
14.037007 38.041 -62.6350
14.138725 38.165 -64.6035
14.241180 38.257 -66.6387
14.344377 38.317 -68.7083
14.448323 38.344 -70.7791
14.553021 38.334 -72.8132
14.658478 38.287 -74.7695
14.764700 38.200 -76.6057
14.871691 38.073 -78.2756
14.979457 37.906 -79.7274
15.088005 37.703 -80.9059
15.197339 37.469 -81.7553
15.307465 37.213 -82.2198
15.418389 36.945 -82.2476
15.530117 36.682 -81.7995
15.642655 36.440 -80.8615
15.756008 36.238 -79.4535
15.870182 36.093 -77.6388
15.985184 36.021 -75.5284
16.101019 36.030 -73.2719
16.217694 36.121 -71.0323
16.335214 36.285 -68.9587
16.453586 36.504 -67.1652
16.572815 36.759 -65.7175
16.692909 37.028 -64.6317
16.813872 37.296 -63.8854
16.935713 37.549 -63.4304
17.058436 37.778 -63.2032
17.182048 37.981 -63.1339
17.306556 38.157 -63.1545
17.431967 38.309 -63.2052
17.558286 38.440 -63.2363
17.685521 38.557 -63.2137
17.813677 38.667 -63.1221
17.942762 38.778 -62.9661
18.072783 38.899 -62.7689
18.203746 39.033 -62.5710
18.335658 39.183 -62.4233
18.468526 39.349 -62.3785
18.602356 39.524 -62.4839
18.737156 39.701 -62.7748
18.872934 39.871 -63.2687
19.009695 40.026 -63.9646
19.147447 40.157 -64.8451
19.286197 40.259 -65.8773
19.425953 40.325 -67.0171
19.566721 40.351 -68.2127
19.708510 40.337 -69.4078
19.851326 40.283 -70.5446
19.995177 40.193 -71.5683
20.140070 40.074 -72.4293
20.286013 39.935 -73.0873
20.433014 39.785 -73.5147
20.581080 39.634 -73.6993
20.730219 39.491 -73.6453
20.880439 39.366 -73.3727
21.031747 39.267 -72.9142
21.184152 39.200 -72.3105
21.337661 39.171 -71.6060
21.492282 39.182 -70.8452
21.648024 39.236 -70.0726
21.804895 39.335 -69.3349
21.962902 39.481 -68.6842
22.122054 39.673 -68.1794
22.282360 39.908 -67.8850
22.443827 40.177 -67.8654
22.606464 40.469 -68.1758
22.770280 40.769 -68.8544
22.935283 41.062 -69.9146
23.101481 41.332 -71.3426
23.268884 41.565 -73.0973
23.437500 41.748 -75.1119
23.607338 41.871 -77.2979
23.778406 41.924 -79.5472
23.950714 41.902 -81.7350
24.124271 41.805 -83.7223
24.299086 41.639 -85.3589
24.475167 41.418 -86.4940
24.652524 41.164 -86.9905
24.831166 40.910 -86.7554
25.011103 40.696 -85.7788
25.192344 40.563 -84.1716
25.374898 40.543 -82.1738
25.558775 40.643 -80.1075
25.743984 40.848 -78.2874
25.930536 41.123 -76.9323
26.118439 41.428 -76.1282
26.307704 41.726 -75.8437
26.498341 41.993 -75.9702
26.690359 42.214 -76.3650
26.883768 42.387 -76.8822
27.078579 42.515 -77.3948
27.274801 42.609 -77.8075
27.472446 42.685 -78.0662
27.671522 42.756 -78.1599
27.872042 42.835 -78.1185
28.074014 42.929 -78.0004
28.277450 43.040 -77.8768
28.482360 43.165 -77.8134
28.688755 43.295 -77.8567
28.896645 43.423 -78.0276
29.106042 43.540 -78.3222
29.316957 43.641 -78.7168
29.529400 43.721 -79.1761
29.743382 43.781 -79.6599
29.958915 43.821 -80.1299
30.176009 43.846 -80.5533
30.394677 43.860 -80.9069
30.614929 43.868 -81.1787
30.836778 43.877 -81.3684
31.060234 43.889 -81.4870
31.285309 43.908 -81.5531
31.512015 43.935 -81.5886
31.740364 43.970 -81.6124
31.970368 44.011 -81.6364
32.202039 44.057 -81.6628
32.435388 44.107 -81.6872
32.670428 44.163 -81.7037
32.907171 44.227 -81.7128
33.145630 44.301 -81.7270
33.385817 44.386 -81.7716
33.627745 44.479 -81.8781
33.871425 44.576 -82.0725
34.116871 44.667 -82.3610
34.364096 44.745 -82.7203
34.613113 44.800 -83.0974
34.863934 44.833 -83.4175
35.116572 44.847 -83.6039
35.371041 44.854 -83.6007
35.627354 44.871 -83.3970
35.885525 44.913 -83.0399
36.145566 44.988 -82.6274
36.407492 45.097 -82.2795
36.671316 45.229 -82.0974
36.937051 45.368 -82.1311
37.204712 45.496 -82.3683
37.474313 45.600 -82.7452
37.745867 45.678 -83.1718
38.019389 45.731 -83.5604
38.294893 45.771 -83.8504
38.572394 45.808 -84.0233
38.851905 45.854 -84.1019
39.133442 45.915 -84.1367
39.417019 45.989 -84.1845
39.702651 46.074 -84.2886
39.990353 46.166 -84.4692
40.280140 46.259 -84.7252
40.572026 46.353 -85.0433
40.866028 46.444 -85.4069
41.162160 46.534 -85.8007
41.460438 46.621 -86.2101
41.760877 46.705 -86.6179
42.063494 46.784 -87.0024
42.368303 46.859 -87.3392
42.675322 46.934 -87.6069
42.984565 47.011 -87.7938
43.296048 47.092 -87.8997
43.609789 47.179 -87.9337
43.925804 47.270 -87.9069
44.244108 47.364 -87.8267
44.564719 47.460 -87.6949
44.887654 47.555 -87.5125
45.212928 47.651 -87.2844
45.540560 47.744 -87.0181
45.870565 47.834 -86.7150
46.202962 47.917 -86.3575
46.537768 47.993 -85.9078
46.875000 48.071 -85.3239
47.214676 48.164 -84.5995
47.556813 48.290 -83.8041
47.901429 48.460 -83.0919
48.248542 48.666 -82.6564
48.598171 48.884 -82.6473
48.950334 49.080 -83.1025
49.305048 49.225 -83.9364
49.662333 49.304 -84.9812
50.022206 49.319 -86.0544
50.384688 49.286 -87.0219
50.749796 49.229 -87.8329
51.117550 49.167 -88.5109
51.487969 49.109 -89.1045
51.861072 49.056 -89.6342
52.236879 49.008 -90.0723
52.615409 48.971 -90.3723
52.996681 48.961 -90.5231
53.380717 48.989 -90.5825
53.767536 49.060 -90.6600
54.157158 49.163 -90.8552
54.549603 49.277 -91.2019
54.944892 49.386 -91.6569
55.343045 49.481 -92.1340
55.744084 49.564 -92.5533
56.148028 49.643 -92.8752
56.554900 49.723 -93.1036
56.964720 49.807 -93.2656
57.377510 49.890 -93.3857
57.793291 49.970 -93.4733
58.212085 50.046 -93.5258
58.633914 50.121 -93.5429
59.058799 50.197 -93.5366
59.486764 50.279 -93.5331
59.917829 50.367 -93.5651
60.352019 50.459 -93.6589
60.789354 50.550 -93.8255
61.229859 50.637 -94.0587
61.673556 50.718 -94.3413
62.120468 50.795 -94.6546
62.570618 50.870 -94.9832
63.024031 50.945 -95.3151
63.480729 51.020 -95.6381
63.940736 51.094 -95.9382
64.404077 51.168 -96.2037
64.870776 51.241 -96.4291
65.340856 51.314 -96.6164
65.814343 51.387 -96.7711
66.291261 51.461 -96.8998
66.771635 51.539 -97.0115
67.255489 51.621 -97.1210
67.742850 51.708 -97.2469
68.233743 51.797 -97.4047
68.728193 51.886 -97.6017
69.226226 51.973 -97.8383
69.727867 52.056 -98.1134
70.233144 52.136 -98.4249
70.742083 52.213 -98.7662
71.254709 52.286 -99.1250
71.771050 52.358 -99.4861
72.291132 52.430 -99.8355
72.814984 52.504 -100.1602
73.342631 52.582 -100.4481
73.874102 52.663 -100.6917
74.409424 52.748 -100.8925
74.948626 52.836 -101.0623
75.491734 52.922 -101.2165
76.038779 53.003 -101.3649
76.589787 53.077 -101.5074
77.144788 53.141 -101.6381
77.703811 53.199 -101.7536
78.266885 53.253 -101.8577
78.834039 53.307 -101.9603
79.405303 53.368 -102.0787
79.980706 53.438 -102.2443
80.560280 53.521 -102.5002
81.144053 53.612 -102.8785
81.732056 53.704 -103.3712
82.324320 53.794 -103.9304
82.920876 53.881 -104.4990
83.521755 53.969 -105.0394
84.126988 54.059 -105.5349
84.736607 54.151 -105.9766
85.350643 54.245 -106.3609
85.969129 54.339 -106.6945
86.592097 54.433 -106.9946
87.219579 54.524 -107.2809
87.851608 54.610 -107.5680
88.488217 54.689 -107.8650
89.129439 54.761 -108.1775
89.775308 54.828 -108.5097
90.425856 54.890 -108.8650
91.081119 54.951 -109.2457
91.741131 55.012 -109.6512
