* Measurement data measured by REW V5.20.9
* Source: Input device not selected, no input selected, L, volume: no control. Timing signal peak level -16,5 dBFS, measurement signal peak level -15,4 dBFS
* Format: 256k Log Swept Sine, 1 sweep at -12,0 dBFS using an acoustic timing reference
* Dated: 13.02.2024 22:39:25
* REW Settings:
*  C-weighting compensation: Off
*  Target level: 75.0 dB
* Note: Delay -0,0199 ms (-6,8 mm, -0,27 in) using estimated IR delay relative to Acoustic reference on  R with no timing offset
* Measurement: LM
* Smoothing: 1/12 octave
* Frequency Step: 96 ppo
* Start Frequency: 20.187378 Hz
*
* Freq(Hz) SPL(dB) Phase(degrees)
20.187378 87.096 -44.4158
20.333664 87.157 -44.6552
20.481010 87.244 -45.0134
20.629424 87.346 -45.4621
20.778913 87.450 -45.9732
20.929486 87.549 -46.5212
21.081150 87.638 -47.0834
21.233912 87.713 -47.6395
21.387782 87.773 -48.1705
21.542767 87.818 -48.6593
21.698874 87.849 -49.0898
21.856113 87.869 -49.4484
22.014492 87.881 -49.7239
22.174018 87.887 -49.9097
22.334700 87.894 -50.0040
22.496546 87.905 -50.0116
22.659566 87.925 -49.9445
22.823766 87.958 -49.8214
22.989157 88.007 -49.6670
23.155745 88.073 -49.5091
23.323542 88.158 -49.3757
23.492554 88.258 -49.2913
23.662790 88.370 -49.2737
23.834261 88.492 -49.3320
24.006973 88.617 -49.4661
24.180938 88.744 -49.6677
24.356163 88.867 -49.9223
24.532658 88.986 -50.2124
24.710431 89.098 -50.5208
24.889493 89.204 -50.8343
25.069853 89.305 -51.1449
25.251519 89.402 -51.4522
25.434502 89.496 -51.7620
25.618811 89.586 -52.0851
25.804456 89.673 -52.4335
25.991445 89.755 -52.8171
26.179790 89.831 -53.2402
26.369500 89.900 -53.6987
26.560584 89.961 -54.1797
26.753053 90.014 -54.6626
26.946917 90.063 -55.1223
27.142185 90.109 -55.5342
27.338869 90.160 -55.8790
27.536977 90.222 -56.1489
27.736522 90.300 -56.3502
27.937512 90.399 -56.5044
28.139959 90.520 -56.6447
28.343872 90.661 -56.8093
28.549264 90.818 -57.0331
28.756143 90.982 -57.3406
28.964522 91.145 -57.7402
29.174411 91.298 -58.2236
29.385821 91.436 -58.7678
29.598763 91.554 -59.3402
29.813248 91.651 -59.9044
30.029287 91.730 -60.4266
30.246891 91.795 -60.8814
30.466073 91.851 -61.2559
30.686842 91.906 -61.5512
30.909212 91.966 -61.7816
31.133193 92.033 -61.9702
31.358797 92.110 -62.1431
31.586035 92.195 -62.3229
31.814921 92.287 -62.5240
32.045465 92.381 -62.7507
32.277680 92.474 -62.9980
32.511577 92.564 -63.2551
32.747169 92.648 -63.5098
32.984469 92.727 -63.7527
33.223488 92.801 -63.9805
33.464239 92.871 -64.1963
33.706735 92.939 -64.4082
33.950987 93.006 -64.6271
34.197010 93.072 -64.8626
34.444816 93.138 -65.1201
34.694417 93.204 -65.3997
34.945827 93.271 -65.6967
35.199059 93.340 -66.0031
35.454126 93.412 -66.3116
35.711041 93.488 -66.6175
35.969818 93.568 -66.9202
36.230470 93.651 -67.2227
36.493011 93.736 -67.5293
36.757455 93.821 -67.8426
37.023814 93.902 -68.1611
37.292104 93.978 -68.4789
37.562338 94.048 -68.7866
37.834530 94.114 -69.0752
38.108695 94.177 -69.3397
38.384846 94.240 -69.5814
38.662999 94.305 -69.8086
38.943167 94.374 -70.0330
39.225365 94.445 -70.2658
39.509608 94.518 -70.5128
39.795911 94.591 -70.7732
40.084289 94.662 -71.0410
40.374756 94.733 -71.3099
40.667328 94.803 -71.5775
40.962020 94.875 -71.8480
41.258848 94.947 -72.1299
41.557827 95.021 -72.4312
41.858972 95.095 -72.7532
42.162299 95.167 -73.0879
42.467824 95.236 -73.4202
42.775564 95.305 -73.7346
43.085533 95.377 -74.0227
43.397749 95.453 -74.2876
43.712227 95.535 -74.5415
44.028983 95.622 -74.7980
44.348036 95.713 -75.0621
44.669400 95.803 -75.3259
44.993093 95.890 -75.5700
45.319131 95.973 -75.7709
45.647532 96.049 -75.9091
45.978313 96.118 -75.9730
46.311491 96.178 -75.9580
46.647083 96.230 -75.8639
46.985107 96.275 -75.6976
47.325581 96.318 -75.4803
47.668521 96.369 -75.2576
48.013947 96.433 -75.1010
48.361876 96.517 -75.0935
48.712326 96.616 -75.3002
49.065315 96.723 -75.7397
49.420863 96.829 -76.3720
49.778987 96.925 -77.1117
50.139706 97.010 -77.8593
50.503039 97.086 -78.5351
50.869005 97.155 -79.1004
51.237623 97.223 -79.5589
51.608912 97.290 -79.9385
51.982891 97.355 -80.2695
52.359580 97.419 -80.5708
52.739000 97.482 -80.8489
53.121168 97.549 -81.1058
53.506106 97.620 -81.3462
53.893833 97.697 -81.5785
54.284370 97.777 -81.8119
54.677737 97.859 -82.0537
55.073955 97.939 -82.3106
55.473043 98.016 -82.5900
55.875024 98.089 -82.8974
56.279917 98.157 -83.2296
56.687745 98.218 -83.5692
57.098527 98.274 -83.8877
57.512287 98.327 -84.1571
57.929045 98.380 -84.3654
58.348822 98.436 -84.5247
58.771642 98.498 -84.6663
59.197525 98.567 -84.8258
59.626495 98.639 -85.0273
60.058573 98.716 -85.2748
60.493782 98.794 -85.5529
60.932145 98.873 -85.8349
61.373685 98.952 -86.0939
61.818424 99.030 -86.3132
62.266386 99.106 -86.4935
62.717593 99.180 -86.6531
63.172071 99.252 -86.8212
63.629842 99.323 -87.0245
64.090930 99.394 -87.2770
64.555359 99.465 -87.5753
65.023154 99.536 -87.9035
65.494339 99.608 -88.2415
65.968938 99.680 -88.5723
66.446976 99.751 -88.8864
66.928478 99.818 -89.1822
67.413469 99.883 -89.4639
67.901975 99.946 -89.7371
68.394021 100.007 -90.0065
68.889632 100.068 -90.2740
69.388835 100.129 -90.5397
69.891655 100.192 -90.8034
70.398118 100.256 -91.0661
70.908252 100.320 -91.3300
71.422083 100.384 -91.5989
71.939636 100.450 -91.8776
72.460941 100.516 -92.1695
72.986023 100.585 -92.4742
73.514909 100.656 -92.7867
74.047629 100.729 -93.0982
74.584208 100.802 -93.3994
75.124676 100.876 -93.6853
75.669061 100.949 -93.9585
76.217390 101.019 -94.2277
76.769692 101.087 -94.5015
77.325997 101.152 -94.7826
77.886333 101.215 -95.0667
78.450730 101.279 -95.3480
79.019216 101.344 -95.6250
79.591822 101.412 -95.9019
80.168577 101.483 -96.1852
80.749512 101.555 -96.4794
81.334656 101.627 -96.7822
81.924040 101.698 -97.0834
82.517696 101.767 -97.3702
83.115653 101.835 -97.6357
83.717943 101.902 -97.8863
84.324598 101.969 -98.1388
84.935649 102.038 -98.4097
85.551128 102.106 -98.7044
86.171066 102.172 -99.0175
86.795497 102.236 -99.3406
87.424453 102.298 -99.6681
88.057967 102.356 -99.9975
88.696071 102.412 -100.3288
89.338800 102.468 -100.6639
89.986185 102.526 -101.0047
90.638262 102.586 -101.3483
91.295065 102.646 -101.6871
91.956626 102.709 -102.0152
92.622982 102.773 -102.3333
93.294166 102.839 -102.6459
93.970214 102.907 -102.9562
94.651161 102.976 -103.2644
95.337042 103.043 -103.5710
96.027894 103.109 -103.8796
96.723752 103.174 -104.1939
97.424652 103.237 -104.5155
98.130631 103.299 -104.8439
98.841726 103.362 -105.1793
99.557974 103.425 -105.5235
100.279412 103.488 -105.8790
101.006078 103.552 -106.2443
101.738010 103.616 -106.6110
102.475245 103.680 -106.9656
103.217823 103.742 -107.2989
103.965782 103.802 -107.6134
104.719161 103.863 -107.9196
105.477999 103.924 -108.2267
106.242336 103.985 -108.5359
107.012212 104.046 -108.8428
107.787666 104.105 -109.1457
108.568740 104.162 -109.4518
109.355474 104.217 -109.7767
110.147909 104.273 -110.1335
110.946086 104.330 -110.5216
111.750047 104.390 -110.9283
112.559834 104.453 -111.3390
113.375489 104.515 -111.7448
114.197055 104.577 -112.1446
115.024574 104.637 -112.5416
115.858089 104.696 -112.9381
116.697645 104.756 -113.3331
117.543284 104.817 -113.7252
118.395051 104.878 -114.1143
119.252990 104.938 -114.4994
120.117147 104.996 -114.8773
120.987565 105.054 -115.2456
121.864291 105.111 -115.6057
122.747370 105.168 -115.9639
123.636848 105.223 -116.3279
124.532771 105.278 -116.7035
125.435187 105.331 -117.0921
126.344142 105.382 -117.4929
127.259684 105.434 -117.9060
128.181860 105.487 -118.3300
129.110718 105.543 -118.7596
130.046308 105.601 -119.1880
130.988677 105.660 -119.6116
131.937875 105.718 -120.0305
132.893951 105.774 -120.4478
133.856956 105.828 -120.8687
134.826938 105.880 -121.2974
135.803950 105.929 -121.7348
136.788041 105.974 -122.1794
137.779264 106.017 -122.6292
138.777669 106.059 -123.0820
139.783309 106.100 -123.5356
140.796237 106.143 -123.9885
141.816504 106.186 -124.4414
142.844165 106.230 -124.8967
143.879273 106.273 -125.3562
144.921881 106.317 -125.8200
145.972045 106.360 -126.2863
147.029819 106.403 -126.7521
148.095257 106.445 -127.2148
149.168417 106.488 -127.6728
150.249353 106.530 -128.1257
151.338121 106.572 -128.5744
152.434780 106.613 -129.0222
153.539385 106.653 -129.4736
154.651995 106.692 -129.9327
155.772667 106.729 -130.4014
156.901460 106.765 -130.8783
158.038432 106.800 -131.3598
159.183644 106.835 -131.8421
160.337154 106.868 -132.3234
161.499023 106.902 -132.8029
162.669312 106.934 -133.2811
163.848081 106.965 -133.7598
165.035392 106.996 -134.2411
166.231306 107.025 -134.7258
167.435887 107.054 -135.2133
168.649196 107.082 -135.7022
169.871298 107.109 -136.1919
171.102255 107.135 -136.6822
172.342133 107.161 -137.1721
173.590995 107.186 -137.6596
174.848907 107.210 -138.1433
176.115934 107.234 -138.6230
177.392143 107.257 -139.1003
178.677599 107.280 -139.5775
179.972371 107.302 -140.0574
181.276525 107.323 -140.5416
182.590129 107.343 -141.0300
183.913252 107.363 -141.5208
185.245964 107.381 -142.0120
186.588332 107.399 -142.5014
187.940428 107.416 -142.9872
189.302322 107.433 -143.4681
190.674085 107.449 -143.9434
192.055788 107.465 -144.4130
193.447503 107.479 -144.8778
194.849303 107.491 -145.3399
196.261262 107.502 -145.8020
197.683452 107.511 -146.2658
199.115948 107.519 -146.7327
200.558824 107.527 -147.2037
202.012156 107.534 -147.6778
203.476019 107.540 -148.1522
204.950490 107.546 -148.6236
206.435646 107.551 -149.0902
207.931564 107.556 -149.5516
209.438322 107.561 -150.0085
210.955998 107.564 -150.4620
212.484672 107.567 -150.9129
214.024424 107.569 -151.3621
215.575333 107.569 -151.8110
217.137481 107.568 -152.2604
218.710948 107.567 -152.7100
220.295818 107.565 -153.1579
221.892172 107.563 -153.6015
223.500094 107.560 -154.0396
225.119668 107.558 -154.4729
226.750978 107.554 -154.9029
228.394109 107.549 -155.3296
230.049147 107.544 -155.7519
231.716178 107.537 -156.1681
233.395289 107.530 -156.5775
235.086567 107.522 -156.9806
236.790102 107.513 -157.3791
238.505980 107.504 -157.7742
240.234293 107.494 -158.1665
241.975130 107.484 -158.5557
243.728581 107.473 -158.9411
245.494739 107.462 -159.3233
247.273695 107.449 -159.7038
249.065542 107.436 -160.0853
250.870374 107.422 -160.4687
252.688284 107.407 -160.8523
254.519367 107.391 -161.2334
256.363720 107.376 -161.6105
258.221437 107.361 -161.9844
260.092616 107.346 -162.3559
261.977354 107.332 -162.7231
263.875750 107.317 -163.0820
265.787903 107.301 -163.4289
267.713911 107.284 -163.7645
269.653877 107.265 -164.0923
271.607900 107.246 -164.4159
273.576083 107.226 -164.7377
275.558528 107.206 -165.0590
277.555338 107.186 -165.3803
279.566619 107.166 -165.7019
281.592474 107.145 -166.0241
283.633009 107.125 -166.3468
285.688331 107.104 -166.6676
287.758546 107.083 -166.9821
289.843763 107.062 -167.2862
291.944090 107.041 -167.5786
294.059638 107.020 -167.8610
296.190515 106.999 -168.1370
298.336833 106.976 -168.4090
300.498705 106.953 -168.6786
302.676243 106.930 -168.9474
304.869559 106.907 -169.2167
307.078770 106.884 -169.4860
309.303989 106.861 -169.7513
311.545334 106.837 -170.0069
313.802919 106.812 -170.2512
316.076865 106.787 -170.4879
318.367288 106.762 -170.7213
320.674309 106.737 -170.9528
322.998047 106.713 -171.1800
325.338624 106.689 -171.4003
327.696162 106.664 -171.6138
330.070783 106.639 -171.8222
332.462612 106.612 -172.0262
334.871773 106.586 -172.2262
337.298392 106.559 -172.4239
339.742595 106.533 -172.6209
342.204510 106.507 -172.8176
344.684265 106.481 -173.0125
347.181989 106.457 -173.2035
349.697813 106.433 -173.3886
352.231868 106.409 -173.5662
354.784285 106.386 -173.7367
357.355198 106.362 -173.9033
359.944741 106.338 -174.0704
362.553049 106.314 -174.2404
365.180258 106.290 -174.4141
367.826505 106.266 -174.5899
370.491927 106.241 -174.7639
373.176665 106.217 -174.9325
375.880856 106.193 -175.0944
378.604644 106.169 -175.2502
381.348169 106.146 -175.4012
384.111575 106.123 -175.5507
386.895006 106.100 -175.7025
389.698607 106.078 -175.8593
392.522524 106.055 -176.0216
395.366904 106.032 -176.1893
398.231895 106.009 -176.3603
401.117648 105.986 -176.5289
404.024312 105.964 -176.6896
406.952038 105.943 -176.8422
409.900981 105.922 -176.9929
412.871292 105.900 -177.1469
415.863128 105.878 -177.3052
418.876643 105.855 -177.4664
421.911996 105.832 -177.6302
424.969344 105.808 -177.7986
428.048847 105.784 -177.9734
431.150666 105.759 -178.1528
434.274961 105.732 -178.3328
437.421897 105.705 -178.5126
440.591636 105.677 -178.6999
443.784345 105.646 -178.9079
447.000189 105.612 -179.1438
450.239337 105.575 -179.3977
453.501956 105.536 -179.6523
456.788219 105.496 -179.8978
460.098294 105.453 179.8682
463.432356 105.407 179.6461
466.790578 105.357 179.4397
470.173135 105.305 179.2552
473.580203 105.251 179.0988
477.011961 105.195 178.9753
480.468586 105.140 178.8862
483.950259 105.084 178.8291
487.457163 105.030 178.7974
490.989478 104.976 178.7841
494.547390 104.921 178.7842
498.131084 104.866 178.7953
501.740748 104.810 178.8179
505.376568 104.752 178.8518
509.038735 104.694 178.8966
512.727439 104.636 178.9529
516.442874 104.579 179.0207
520.185232 104.523 179.0987
523.954708 104.468 179.1857
527.751500 104.414 179.2842
531.575805 104.363 179.3988
535.427822 104.312 179.5315
539.307753 104.264 179.6821
543.215800 104.218 179.8507
547.152165 104.174 -179.9624
551.117055 104.132 -179.7585
555.110677 104.094 -179.5390
559.133237 104.059 -179.3067
563.184947 104.029 -179.0688
567.266018 104.002 -178.8356
571.376661 103.978 -178.6141
575.517092 103.955 -178.4077
579.687526 103.934 -178.2173
583.888181 103.913 -178.0390
588.119275 103.894 -177.8665
592.381030 103.876 -177.6955
596.673667 103.859 -177.5234
600.997410 103.843 -177.3485
605.352485 103.827 -177.1699
609.739119 103.812 -176.9887
614.157540 103.799 -176.8081
618.607979 103.785 -176.6326
623.090667 103.773 -176.4677
627.605839 103.760 -176.3180
632.153730 103.748 -176.1835
636.734576 103.735 -176.0595
641.348617 103.722 -175.9397
645.996094 103.708 -175.8201
650.677248 103.695 -175.6995
655.392323 103.681 -175.5776
660.141566 103.667 -175.4547
664.925224 103.654 -175.3313
669.743546 103.641 -175.2078
674.596784 103.628 -175.0842
679.485191 103.616 -174.9589
684.409020 103.603 -174.8295
689.368530 103.591 -174.6956
694.363979 103.579 -174.5596
699.395626 103.566 -174.4246
704.463736 103.554 -174.2939
709.568570 103.541 -174.1703
714.710396 103.530 -174.0543
719.889483 103.518 -173.9427
725.106099 103.505 -173.8315
730.360516 103.491 -173.7162
735.653010 103.476 -173.5930
740.983855 103.460 -173.4603
746.353329 103.443 -173.3199
751.761713 103.426 -173.1744
757.209288 103.409 -173.0284
762.696339 103.393 -172.8873
768.223151 103.378 -172.7552
773.790013 103.363 -172.6320
779.397214 103.348 -172.5149
785.045047 103.333 -172.4004
790.733808 103.316 -172.2848
796.463791 103.300 -172.1629
802.235296 103.284 -172.0287
808.048623 103.269 -171.8792
813.904077 103.253 -171.7169
819.801961 103.237 -171.5490
825.742584 103.220 -171.3823
831.726255 103.203 -171.2200
837.753287 103.185 -171.0602
843.823992 103.169 -170.8989
849.938689 103.153 -170.7333
856.097695 103.136 -170.5629
862.301332 103.119 -170.3887
868.549922 103.101 -170.2111
874.843793 103.081 -170.0288
881.183272 103.060 -169.8416
887.568689 103.039 -169.6514
894.000378 103.017 -169.4609
900.478673 102.996 -169.2714
907.003913 102.976 -169.0811
913.576437 102.957 -168.8846
920.196588 102.939 -168.6755
926.864712 102.921 -168.4492
933.581156 102.904 -168.2072
940.346270 102.888 -167.9565
947.160407 102.872 -167.7052
954.023921 102.856 -167.4577
960.937172 102.837 -167.2122
967.900519 102.818 -166.9624
974.914325 102.796 -166.7015
981.978956 102.775 -166.4293
989.094780 102.755 -166.1503
996.262169 102.736 -165.8694
1003.481495 102.720 -165.5892
1010.753136 102.707 -165.3088
1018.077470 102.695 -165.0229
1025.454879 102.684 -164.7264
1032.885748 102.672 -164.4197
1040.370463 102.660 -164.1067
1047.909417 102.649 -163.7902
1055.503000 102.638 -163.4700
1063.151610 102.627 -163.1447
1070.855645 102.616 -162.8133
1078.615506 102.606 -162.4759
1086.431599 102.595 -162.1328
1094.304330 102.584 -161.7835
1102.234110 102.572 -161.4270
1110.221353 102.561 -161.0634
1118.266475 102.551 -160.6956
1126.369895 102.543 -160.3274
1134.532035 102.535 -159.9597
1142.753322 102.529 -159.5886
1151.034184 102.523 -159.2084
1159.375052 102.518 -158.8153
1167.776361 102.513 -158.4088
1176.238550 102.510 -157.9913
1184.762060 102.507 -157.5674
1193.347334 102.506 -157.1404
1201.994821 102.504 -156.7102
1210.704971 102.504 -156.2763
1219.478238 102.504 -155.8388
1228.315080 102.504 -155.3978
1237.215957 102.505 -154.9523
1246.181334 102.507 -154.5009
1255.211678 102.509 -154.0419
1264.307459 102.513 -153.5738
1273.469152 102.518 -153.0958
1282.697235 102.524 -152.6092
1291.992188 102.532 -152.1171
1301.354495 102.541 -151.6230
1310.784647 102.551 -151.1282
1320.283132 102.562 -150.6317
1329.850448 102.573 -150.1304
1339.487093 102.585 -149.6208
1349.193569 102.598 -149.1013
1358.970381 102.612 -148.5730
1368.818041 102.628 -148.0387
1378.737061 102.644 -147.5001
1388.727958 102.661 -146.9572
1398.791253 102.679 -146.4095
1408.927471 102.699 -145.8560
1419.137140 102.719 -145.2944
1429.420793 102.741 -144.7222
1439.778965 102.764 -144.1393
1450.212197 102.789 -143.5488
1460.721033 102.817 -142.9537
1471.306019 102.846 -142.3542
1481.967709 102.876 -141.7478
1492.706658 102.909 -141.1303
1503.523426 102.944 -140.4978
1514.418576 102.981 -139.8498
1525.392678 103.020 -139.1879
1536.446302 103.061 -138.5147
1547.580025 103.104 -137.8330
1558.794428 103.148 -137.1444
1570.090095 103.194 -136.4481
1581.467615 103.243 -135.7415
1592.927581 103.295 -135.0230
1604.470591 103.351 -134.2919
1616.097246 103.411 -133.5474
1627.808153 103.474 -132.7863
1639.603922 103.540 -132.0040
1651.485168 103.610 -131.1997
1663.452510 103.682 -130.3783
1675.506573 103.759 -129.5452
1687.647984 103.841 -128.7024
1699.877377 103.927 -127.8487
1712.195390 104.019 -126.9829
1724.602663 104.116 -126.1056
1737.099845 104.219 -125.2189
1749.687587 104.330 -124.3254
1762.366544 104.449 -123.4282
1775.137379 104.576 -122.5297
1788.000756 104.711 -121.6294
1800.957346 104.855 -120.7264
1814.007826 105.009 -119.8235
1827.152874 105.174 -118.9281
1840.393177 105.350 -118.0499
1853.729425 105.536 -117.1975
1867.162312 105.732 -116.3750
1880.692540 105.938 -115.5853
1894.320813 106.154 -114.8358
1908.047843 106.380 -114.1372
1921.874344 106.616 -113.4984
1935.801038 106.861 -112.9234
1949.828650 107.115 -112.4161
1963.957912 107.376 -111.9847
1978.189561 107.644 -111.6393
1992.524338 107.916 -111.3843
2006.962991 108.192 -111.2158
2021.506272 108.471 -111.1261
2036.154940 108.751 -111.1108
2050.909758 109.034 -111.1714
2065.771495 109.318 -111.3140
2080.740927 109.604 -111.5433
2095.818833 109.891 -111.8610
2111.006001 110.178 -112.2697
2126.303220 110.464 -112.7729
2141.711290 110.749 -113.3711
2157.231013 111.030 -114.0611
2172.863198 111.308 -114.8407
2188.608660 111.581 -115.7115
2204.468221 111.848 -116.6764
2220.442706 112.108 -117.7349
2236.532950 112.360 -118.8810
2252.739789 112.601 -120.1065
2269.064070 112.833 -121.4061
2285.506644 113.055 -122.7758
2302.068367 113.265 -124.2094
2318.750104 113.464 -125.7000
2335.552723 113.652 -127.2441
2352.477101 113.827 -128.8397
2369.524119 113.989 -130.4832
2386.694668 114.139 -132.1685
2403.989641 114.274 -133.8904
2421.409941 114.396 -135.6440
2438.956476 114.504 -137.4244
2456.630160 114.598 -139.2242
2474.431915 114.676 -141.0348
2492.362668 114.740 -142.8486
2510.423356 114.789 -144.6593
2528.614918 114.824 -146.4606
2546.938304 114.846 -148.2459
2565.394469 114.853 -150.0094
2583.984375 114.848 -151.7458
2602.708991 114.830 -153.4501
2621.569293 114.801 -155.1169
2640.566265 114.759 -156.7420
2659.700897 114.707 -158.3223
2678.974186 114.645 -159.8544
2698.387137 114.573 -161.3347
2717.940763 114.492 -162.7594
2737.636082 114.402 -164.1254
2757.474121 114.305 -165.4301
2777.455915 114.202 -166.6711
