* Measurement data measured by REW V5.20.9
* Source: Input device not selected, no input selected, L, volume: no control. Timing signal peak level -7,1 dBFS, measurement signal peak level -7,1 dBFS
* Format: 256k Log Swept Sine, 1 sweep at -12,0 dBFS using an acoustic timing reference
* Dated: 01.01.2024 21:10:35
* REW Settings:
*  C-weighting compensation: Off
*  Target level: 75.0 dB
* Note: Delay -0,0196 ms (-6,7 mm, -0,26 in) using estimated IR delay relative to Acoustic reference on  R with no timing offset
* Measurement: Salnotes Dioko
* Smoothing: 1/3 octave
* Frequency Step: 96 ppo
* Start Frequency: 20.187378 Hz
*
* Freq(Hz) SPL(dB) Phase(degrees)
20.187378 113.619 -143.4496
20.333664 113.623 -143.5757
20.481010 113.629 -143.7269
20.629424 113.635 -143.9021
20.778913 113.642 -144.0995
20.929486 113.650 -144.3176
21.081150 113.659 -144.5546
21.233912 113.668 -144.8086
21.387782 113.677 -145.0777
21.542767 113.686 -145.3599
21.698874 113.696 -145.6534
21.856113 113.706 -145.9562
22.014492 113.716 -146.2667
22.174018 113.726 -146.5830
22.334700 113.736 -146.9038
22.496546 113.746 -147.2276
22.659566 113.756 -147.5534
22.823766 113.766 -147.8801
22.989157 113.775 -148.2072
23.155745 113.785 -148.5342
23.323542 113.794 -148.8610
23.492554 113.804 -149.1878
23.662790 113.813 -149.5150
23.834261 113.823 -149.8433
24.006973 113.832 -150.1737
24.180938 113.842 -150.5072
24.356163 113.851 -150.8452
24.532658 113.861 -151.1890
24.710431 113.870 -151.5399
24.889493 113.879 -151.8992
25.069853 113.887 -152.2679
25.251519 113.895 -152.6467
25.434502 113.902 -153.0360
25.618811 113.908 -153.4356
25.804456 113.913 -153.8449
25.991445 113.916 -154.2628
26.179790 113.919 -154.6877
26.369500 113.920 -155.1179
26.560584 113.920 -155.5511
26.753053 113.919 -155.9853
26.946917 113.917 -156.4185
27.142185 113.915 -156.8487
27.338869 113.912 -157.2745
27.536977 113.910 -157.6949
27.736522 113.908 -158.1095
27.937512 113.906 -158.5181
28.139959 113.905 -158.9211
28.343872 113.905 -159.3193
28.549264 113.906 -159.7136
28.756143 113.907 -160.1049
28.964522 113.909 -160.4941
29.174411 113.912 -160.8820
29.385821 113.914 -161.2692
29.598763 113.916 -161.6560
29.813248 113.918 -162.0425
30.029287 113.919 -162.4287
30.246891 113.920 -162.8143
30.466073 113.919 -163.1989
30.686842 113.918 -163.5823
30.909212 113.915 -163.9640
31.133193 113.912 -164.3437
31.358797 113.908 -164.7210
31.586035 113.902 -165.0957
31.814921 113.896 -165.4676
32.045465 113.889 -165.8365
32.277680 113.881 -166.2023
32.511577 113.872 -166.5651
32.747169 113.863 -166.9247
32.984469 113.853 -167.2811
33.223488 113.842 -167.6344
33.464239 113.831 -167.9846
33.706735 113.820 -168.3316
33.950987 113.808 -168.6755
34.197010 113.796 -169.0162
34.444816 113.784 -169.3535
34.694417 113.771 -169.6875
34.945827 113.759 -170.0182
35.199059 113.746 -170.3454
35.454126 113.734 -170.6691
35.711041 113.721 -170.9893
35.969818 113.709 -171.3061
36.230470 113.697 -171.6195
36.493011 113.684 -171.9296
36.757455 113.672 -172.2366
37.023814 113.659 -172.5405
37.292104 113.647 -172.8416
37.562338 113.634 -173.1398
37.834530 113.622 -173.4355
38.108695 113.609 -173.7287
38.384846 113.596 -174.0195
38.662999 113.583 -174.3080
38.943167 113.569 -174.5944
39.225365 113.556 -174.8787
39.509608 113.542 -175.1609
39.795911 113.528 -175.4411
40.084289 113.513 -175.7193
40.374756 113.498 -175.9956
40.667328 113.483 -176.2700
40.962020 113.468 -176.5426
41.258848 113.451 -176.8135
41.557827 113.435 -177.0828
41.858972 113.418 -177.3505
42.162299 113.401 -177.6167
42.467824 113.383 -177.8814
42.775564 113.365 -178.1447
43.085533 113.346 -178.4065
43.397749 113.327 -178.6667
43.712227 113.308 -178.9254
44.028983 113.288 -179.1823
44.348036 113.267 -179.4373
44.669400 113.247 -179.6903
44.993093 113.225 -179.9412
45.319131 113.204 179.8101
45.647532 113.182 179.5637
45.978313 113.159 179.3196
46.311491 113.137 179.0781
46.647083 113.114 178.8390
46.985107 113.090 178.6024
47.325581 113.067 178.3683
47.668521 113.043 178.1367
48.013947 113.019 177.9077
48.361876 112.995 177.6812
48.712326 112.972 177.4571
49.065315 112.948 177.2354
49.420863 112.924 177.0161
49.778987 112.900 176.7990
50.139706 112.876 176.5840
50.503039 112.853 176.3712
50.869005 112.830 176.1605
51.237623 112.806 175.9518
51.608912 112.783 175.7453
51.982891 112.760 175.5408
52.359580 112.736 175.3385
52.739000 112.713 175.1383
53.121168 112.690 174.9404
53.506106 112.667 174.7448
53.893833 112.644 174.5516
54.284370 112.620 174.3607
54.677737 112.597 174.1723
55.073955 112.573 173.9863
55.473043 112.550 173.8026
55.875024 112.526 173.6214
56.279917 112.502 173.4424
56.687745 112.478 173.2658
57.098527 112.454 173.0915
57.512287 112.429 172.9193
57.929045 112.405 172.7494
58.348822 112.381 172.5816
58.771642 112.356 172.4159
59.197525 112.332 172.2522
59.626495 112.307 172.0905
60.058573 112.282 171.9305
60.493782 112.258 171.7721
60.932145 112.233 171.6152
61.373685 112.209 171.4594
61.818424 112.184 171.3045
62.266386 112.159 171.1505
62.717593 112.134 170.9969
63.172071 112.109 170.8439
63.629842 112.084 170.6913
64.090930 112.059 170.5391
64.555359 112.034 170.3873
65.023154 112.008 170.2360
65.494339 111.983 170.0853
65.968938 111.957 169.9353
66.446976 111.931 169.7861
66.928478 111.905 169.6379
67.413469 111.878 169.4906
67.901975 111.852 169.3445
68.394021 111.825 169.1996
68.889632 111.798 169.0560
69.388835 111.771 168.9138
69.891655 111.744 168.7731
70.398118 111.716 168.6340
70.908252 111.688 168.4966
71.422083 111.660 168.3610
71.939636 111.632 168.2273
72.460941 111.603 168.0956
72.986023 111.574 167.9662
73.514909 111.545 167.8390
74.047629 111.516 167.7143
74.584208 111.487 167.5921
75.124676 111.457 167.4727
75.669061 111.427 167.3560
76.217390 111.397 167.2422
76.769692 111.367 167.1313
77.325997 111.337 167.0234
77.886333 111.307 166.9185
78.450730 111.276 166.8166
79.019216 111.246 166.7177
79.591822 111.215 166.6217
80.168577 111.185 166.5287
80.749512 111.154 166.4385
81.334656 111.123 166.3512
81.924040 111.092 166.2666
82.517696 111.061 166.1848
83.115653 111.030 166.1055
83.717943 110.999 166.0290
84.324598 110.967 165.9550
84.935649 110.936 165.8835
85.551128 110.905 165.8145
86.171066 110.873 165.7481
86.795497 110.842 165.6841
87.424453 110.810 165.6225
88.057967 110.778 165.5634
88.696071 110.747 165.5067
89.338800 110.715 165.4523
89.986185 110.684 165.4004
90.638262 110.652 165.3509
91.295065 110.620 165.3037
91.956626 110.589 165.2588
92.622982 110.557 165.2162
93.294166 110.526 165.1760
93.970214 110.494 165.1380
94.651161 110.463 165.1023
95.337042 110.432 165.0688
96.027894 110.400 165.0375
96.723752 110.369 165.0084
97.424652 110.338 164.9815
98.130631 110.307 164.9568
98.841726 110.275 164.9342
99.557974 110.244 164.9138
100.279412 110.213 164.8954
101.006078 110.182 164.8793
101.738010 110.151 164.8653
102.475245 110.120 164.8534
103.217823 110.089 164.8437
103.965782 110.058 164.8361
104.719161 110.027 164.8307
105.477999 109.996 164.8275
106.242336 109.965 164.8265
107.012212 109.935 164.8278
107.787666 109.904 164.8314
108.568740 109.873 164.8373
109.355474 109.843 164.8456
110.147909 109.813 164.8562
110.946086 109.782 164.8694
111.750047 109.752 164.8849
112.559834 109.722 164.9030
113.375489 109.692 164.9236
114.197055 109.663 164.9467
115.024574 109.633 164.9723
115.858089 109.604 165.0003
116.697645 109.575 165.0308
117.543284 109.546 165.0637
118.395051 109.517 165.0990
119.252990 109.489 165.1366
120.117147 109.461 165.1766
120.987565 109.433 165.2189
121.864291 109.405 165.2634
122.747370 109.378 165.3102
123.636848 109.350 165.3592
124.532771 109.323 165.4102
125.435187 109.297 165.4632
126.344142 109.270 165.5181
127.259684 109.244 165.5748
128.181860 109.219 165.6329
129.110718 109.193 165.6925
130.046308 109.168 165.7533
130.988677 109.144 165.8151
131.937875 109.119 165.8777
132.893951 109.095 165.9409
133.856956 109.071 166.0045
134.826938 109.047 166.0685
135.803950 109.024 166.1325
136.788041 109.001 166.1964
137.779264 108.978 166.2602
138.777669 108.956 166.3236
139.783309 108.933 166.3866
140.796237 108.911 166.4490
141.816504 108.889 166.5110
142.844165 108.867 166.5724
143.879273 108.846 166.6332
144.921881 108.824 166.6935
145.972045 108.802 166.7533
147.029819 108.781 166.8127
148.095257 108.759 166.8720
149.168417 108.737 166.9311
150.249353 108.716 166.9903
151.338121 108.694 167.0496
152.434780 108.672 167.1094
153.539385 108.651 167.1697
154.651995 108.629 167.2307
155.772667 108.607 167.2926
156.901460 108.585 167.3555
158.038432 108.563 167.4196
159.183644 108.540 167.4850
160.337154 108.518 167.5517
161.499023 108.496 167.6200
162.669312 108.474 167.6898
163.848081 108.451 167.7612
165.035392 108.429 167.8344
166.231306 108.406 167.9093
167.435887 108.384 167.9860
168.649196 108.362 168.0645
169.871298 108.339 168.1449
171.102255 108.317 168.2271
172.342133 108.294 168.3113
173.590995 108.272 168.3973
174.848907 108.250 168.4853
176.115934 108.228 168.5751
177.392143 108.205 168.6669
178.677599 108.183 168.7606
179.972371 108.161 168.8562
181.276525 108.140 168.9537
182.590129 108.118 169.0532
183.913252 108.096 169.1545
185.245964 108.075 169.2576
186.588332 108.054 169.3627
187.940428 108.033 169.4695
189.302322 108.012 169.5782
190.674085 107.991 169.6887
192.055788 107.971 169.8009
193.447503 107.950 169.9148
194.849303 107.930 170.0303
196.261262 107.910 170.1475
197.683452 107.891 170.2661
199.115948 107.871 170.3862
200.558824 107.852 170.5077
202.012156 107.833 170.6305
203.476019 107.815 170.7544
204.950490 107.796 170.8795
206.435646 107.778 171.0055
207.931564 107.760 171.1324
209.438322 107.743 171.2602
210.955998 107.725 171.3886
212.484672 107.708 171.5177
214.024424 107.691 171.6472
215.575333 107.675 171.7773
217.137481 107.658 171.9077
218.710948 107.642 172.0384
220.295818 107.626 172.1694
221.892172 107.610 172.3008
223.500094 107.595 172.4324
225.119668 107.579 172.5643
226.750978 107.564 172.6966
228.394109 107.549 172.8292
230.049147 107.533 172.9623
231.716178 107.518 173.0957
233.395289 107.504 173.2297
235.086567 107.489 173.3642
236.790102 107.474 173.4993
238.505980 107.460 173.6350
240.234293 107.445 173.7714
241.975130 107.431 173.9086
243.728581 107.417 174.0466
245.494739 107.402 174.1854
247.273695 107.388 174.3250
249.065542 107.374 174.4656
250.870374 107.360 174.6072
252.688284 107.347 174.7497
254.519367 107.333 174.8931
256.363720 107.320 175.0376
258.221437 107.306 175.1831
260.092616 107.293 175.3297
261.977354 107.280 175.4772
263.875750 107.267 175.6257
265.787903 107.254 175.7753
267.713911 107.241 175.9260
269.653877 107.228 176.0777
271.607900 107.216 176.2304
273.576083 107.204 176.3841
275.558528 107.191 176.5388
277.555338 107.179 176.6945
279.566619 107.168 176.8512
281.592474 107.156 177.0089
283.633009 107.144 177.1674
285.688331 107.133 177.3268
287.758546 107.122 177.4871
289.843763 107.111 177.6481
291.944090 107.100 177.8099
294.059638 107.090 177.9725
296.190515 107.080 178.1357
298.336833 107.070 178.2995
300.498705 107.060 178.4639
302.676243 107.050 178.6287
304.869559 107.040 178.7940
307.078770 107.031 178.9597
309.303989 107.022 179.1258
311.545334 107.013 179.2921
313.802919 107.005 179.4586
316.076865 106.996 179.6254
318.367288 106.988 179.7922
320.674309 106.980 179.9591
322.998047 106.972 -179.8739
325.338624 106.964 -179.7070
327.696162 106.956 -179.5399
330.070783 106.948 -179.3729
332.462612 106.941 -179.2059
334.871773 106.934 -179.0387
337.298392 106.926 -178.8715
339.742595 106.919 -178.7041
342.204510 106.912 -178.5365
344.684265 106.904 -178.3685
347.181989 106.897 -178.2001
349.697813 106.890 -178.0312
352.231868 106.883 -177.8616
354.784285 106.876 -177.6914
357.355198 106.869 -177.5203
359.944741 106.862 -177.3483
362.553049 106.855 -177.1753
365.180258 106.848 -177.0012
367.826505 106.841 -176.8259
370.491927 106.834 -176.6495
373.176665 106.827 -176.4717
375.880856 106.820 -176.2927
378.604644 106.813 -176.1123
381.348169 106.806 -175.9305
384.111575 106.799 -175.7474
386.895006 106.793 -175.5628
389.698607 106.786 -175.3768
392.522524 106.780 -175.1894
395.366904 106.774 -175.0005
398.231895 106.767 -174.8102
401.117648 106.761 -174.6185
404.024312 106.755 -174.4253
406.952038 106.750 -174.2308
409.900981 106.744 -174.0349
412.871292 106.738 -173.8375
415.863128 106.733 -173.6389
418.876643 106.728 -173.4389
421.911996 106.723 -173.2375
424.969344 106.718 -173.0348
428.048847 106.713 -172.8308
431.150666 106.708 -172.6255
434.274961 106.704 -172.4189
437.421897 106.700 -172.2110
440.591636 106.696 -172.0017
443.784345 106.692 -171.7912
447.000189 106.688 -171.5793
450.239337 106.684 -171.3661
453.501956 106.681 -171.1516
456.788219 106.678 -170.9358
460.098294 106.675 -170.7186
463.432356 106.672 -170.5000
466.790578 106.669 -170.2801
470.173135 106.666 -170.0587
473.580203 106.664 -169.8360
477.011961 106.662 -169.6118
480.468586 106.660 -169.3862
483.950259 106.658 -169.1591
487.457163 106.656 -168.9305
490.989478 106.655 -168.7005
494.547390 106.654 -168.4689
498.131084 106.652 -168.2358
501.740748 106.652 -168.0011
505.376568 106.651 -167.7650
509.038735 106.650 -167.5272
512.727439 106.650 -167.2878
516.442874 106.650 -167.0469
520.185232 106.650 -166.8043
523.954708 106.650 -166.5601
527.751500 106.651 -166.3143
531.575805 106.651 -166.0668
535.427822 106.652 -165.8176
539.307753 106.654 -165.5667
543.215800 106.655 -165.3141
547.152165 106.657 -165.0598
551.117055 106.658 -164.8038
555.110677 106.660 -164.5459
559.133237 106.663 -164.2862
563.184947 106.665 -164.0246
567.266018 106.668 -163.7612
571.376661 106.671 -163.4958
575.517092 106.674 -163.2284
579.687526 106.678 -162.9590
583.888181 106.682 -162.6876
588.119275 106.686 -162.4141
592.381030 106.690 -162.1385
596.673667 106.695 -161.8607
600.997410 106.700 -161.5807
605.352485 106.706 -161.2986
609.739119 106.711 -161.0141
614.157540 106.717 -160.7274
618.607979 106.724 -160.4384
623.090667 106.730 -160.1470
627.605839 106.737 -159.8532
632.153730 106.745 -159.5571
636.734576 106.752 -159.2585
641.348617 106.761 -158.9575
645.996094 106.769 -158.6540
650.677248 106.778 -158.3481
655.392323 106.788 -158.0395
660.141566 106.797 -157.7285
664.925224 106.808 -157.4148
669.743546 106.819 -157.0986
674.596784 106.830 -156.7798
679.485191 106.842 -156.4584
684.409020 106.854 -156.1343
689.368530 106.867 -155.8076
694.363979 106.880 -155.4782
699.395626 106.894 -155.1463
704.463736 106.909 -154.8117
709.568570 106.924 -154.4745
714.710396 106.940 -154.1346
719.889483 106.956 -153.7922
725.106099 106.973 -153.4472
730.360516 106.991 -153.0997
735.653010 107.010 -152.7496
740.983855 107.029 -152.3970
746.353329 107.049 -152.0421
751.761713 107.070 -151.6847
757.209288 107.091 -151.3249
762.696339 107.114 -150.9629
768.223151 107.137 -150.5987
773.790013 107.161 -150.2324
779.397214 107.187 -149.8641
785.045047 107.213 -149.4939
790.733808 107.240 -149.1219
796.463791 107.268 -148.7482
802.235296 107.297 -148.3730
808.048623 107.327 -147.9965
813.904077 107.358 -147.6188
819.801961 107.390 -147.2401
825.742584 107.424 -146.8605
831.726255 107.458 -146.4804
837.753287 107.494 -146.0999
843.823992 107.530 -145.7192
849.938689 107.568 -145.3386
856.097695 107.607 -144.9583
862.301332 107.648 -144.5786
868.549922 107.689 -144.1998
874.843793 107.732 -143.8221
881.183272 107.776 -143.4458
887.568689 107.821 -143.0713
894.000378 107.868 -142.6988
900.478673 107.915 -142.3286
907.003913 107.964 -141.9611
913.576437 108.014 -141.5966
920.196588 108.066 -141.2353
926.864712 108.118 -140.8777
933.581156 108.172 -140.5240
940.346270 108.227 -140.1745
947.160407 108.283 -139.8296
954.023921 108.340 -139.4896
960.937172 108.399 -139.1548
967.900519 108.458 -138.8255
974.914325 108.518 -138.5019
981.978956 108.580 -138.1844
989.094780 108.642 -137.8733
996.262169 108.705 -137.5687
1003.481495 108.770 -137.2709
1010.753136 108.835 -136.9802
1018.077470 108.900 -136.6967
1025.454879 108.967 -136.4206
1032.885748 109.034 -136.1521
1040.370463 109.102 -135.8914
1047.909417 109.171 -135.6384
1055.503000 109.240 -135.3934
1063.151610 109.309 -135.1563
1070.855645 109.379 -134.9273
1078.615506 109.449 -134.7062
1086.431599 109.520 -134.4932
1094.304330 109.591 -134.2882
1102.234110 109.662 -134.0910
1110.221353 109.733 -133.9016
1118.266475 109.804 -133.7199
1126.369895 109.875 -133.5456
1134.532035 109.947 -133.3786
1142.753322 110.018 -133.2186
1151.034184 110.089 -133.0654
1159.375052 110.160 -132.9187
1167.776361 110.231 -132.7781
1176.238550 110.301 -132.6434
1184.762060 110.372 -132.5143
1193.347334 110.442 -132.3902
1201.994821 110.512 -132.2708
1210.704971 110.582 -132.1558
1219.478238 110.651 -132.0448
1228.315080 110.720 -131.9372
1237.215957 110.789 -131.8328
1246.181334 110.858 -131.7311
1255.211678 110.927 -131.6318
1264.307459 110.995 -131.5344
1273.469152 111.063 -131.4385
1282.697235 111.131 -131.3439
1291.992188 111.199 -131.2501
1301.354495 111.267 -131.1569
1310.784647 111.335 -131.0639
1320.283132 111.403 -130.9708
1329.850448 111.471 -130.8774
1339.487093 111.540 -130.7834
1349.193569 111.609 -130.6887
1358.970381 111.678 -130.5930
1368.818041 111.747 -130.4963
1378.737061 111.818 -130.3984
1388.727958 111.889 -130.2994
1398.791253 111.960 -130.1993
1408.927471 112.033 -130.0981
1419.137140 112.106 -129.9961
1429.420793 112.181 -129.8936
1439.778965 112.257 -129.7907
1450.212197 112.334 -129.6881
1460.721033 112.412 -129.5862
1471.306019 112.492 -129.4855
1481.967709 112.574 -129.3868
1492.706658 112.657 -129.2909
1503.523426 112.742 -129.1985
1514.418576 112.828 -129.1104
1525.392678 112.917 -129.0278
1536.446302 113.007 -128.9515
1547.580025 113.099 -128.8826
1558.794428 113.193 -128.8221
1570.090095 113.289 -128.7712
1581.467615 113.387 -128.7310
1592.927581 113.486 -128.7027
1604.470591 113.588 -128.6875
1616.097246 113.691 -128.6865
1627.808153 113.795 -128.7010
1639.603922 113.901 -128.7323
1651.485168 114.008 -128.7815
1663.452510 114.117 -128.8499
1675.506573 114.226 -128.9386
1687.647984 114.336 -129.0488
1699.877377 114.447 -129.1815
1712.195390 114.558 -129.3377
1724.602663 114.669 -129.5183
1737.099845 114.779 -129.7239
1749.687587 114.889 -129.9551
1762.366544 114.998 -130.2122
1775.137379 115.105 -130.4951
1788.000756 115.211 -130.8037
1800.957346 115.314 -131.1373
1814.007826 115.414 -131.4948
1827.152874 115.511 -131.8748
1840.393177 115.604 -132.2753
1853.729425 115.694 -132.6937
1867.162312 115.778 -133.1269
1880.692540 115.858 -133.5714
1894.320813 115.933 -134.0227
1908.047843 116.003 -134.4761
1921.874344 116.067 -134.9261
1935.801038 116.126 -135.3672
1949.828650 116.181 -135.7932
1963.957912 116.231 -136.1981
1978.189561 116.277 -136.5763
1992.524338 116.320 -136.9225
2006.962991 116.362 -137.2327
2021.506272 116.404 -137.5039
2036.154940 116.446 -137.7352
2050.909758 116.491 -137.9274
2065.771495 116.539 -138.0836
2080.740927 116.592 -138.2090
2095.818833 116.652 -138.3103
2111.006001 116.718 -138.3961
2126.303220 116.792 -138.4754
2141.711290 116.872 -138.5579
2157.231013 116.961 -138.6531
2172.863198 117.056 -138.7698
2188.608660 117.157 -138.9160
2204.468221 117.264 -139.0985
2220.442706 117.375 -139.3227
2236.532950 117.490 -139.5927
2252.739789 117.607 -139.9115
2269.064070 117.726 -140.2805
2285.506644 117.846 -140.7004
2302.068367 117.965 -141.1710
2318.750104 118.083 -141.6913
2335.552723 118.199 -142.2596
2352.477101 118.313 -142.8741
2369.524119 118.424 -143.5322
2386.694668 118.532 -144.2317
2403.989641 118.636 -144.9698
2421.409941 118.736 -145.7439
2438.956476 118.832 -146.5515
2456.630160 118.924 -147.3899
2474.431915 119.011 -148.2567
2492.362668 119.094 -149.1499
2510.423356 119.173 -150.0672
2528.614918 119.247 -151.0068
2546.938304 119.317 -151.9673
2565.394469 119.383 -152.9471
2583.984375 119.445 -153.9452
2602.708991 119.504 -154.9607
2621.569293 119.558 -155.9929
2640.566265 119.608 -157.0415
2659.700897 119.655 -158.1063
2678.974186 119.699 -159.1872
2698.387137 119.738 -160.2844
