* Measurement data measured by REW V5.20.9
* Source: Головной телефон (TX 384Khz HiFi Audio), MICROPHONE (Общая громкость), R, volume: 0,250. Timing signal peak level 0,0 dBFS, measurement signal peak level zero
* Format: 256k Log Swept Sine, 1 sweep at -12,0 dBFS using an acoustic timing reference
* Dated: 11.09.2022 12:41:12
* REW Settings:
*  C-weighting compensation: Off
*  Target level: 75.0 dB
* Note: 
* Measurement: D13+сеточка
* Smoothing: 1/12 octave
* Frequency Step: 96 ppo
* Start Frequency: 20.141602 Hz
*
* Freq(Hz) SPL(dB) Phase(degrees)
20.141602 134.170 -158.4573
20.287556 134.169 -158.5871
20.434568 134.168 -158.7791
20.582645 134.166 -159.0155
20.731796 134.164 -159.2817
20.882027 134.162 -159.5670
21.033346 134.160 -159.8647
21.185763 134.157 -160.1708
21.339284 134.155 -160.4830
21.493917 134.153 -160.8001
21.649671 134.151 -161.1211
21.806553 134.149 -161.4452
21.964572 134.148 -161.7714
22.123737 134.146 -162.0989
22.284054 134.145 -162.4266
22.445534 134.144 -162.7537
22.608183 134.143 -163.0793
22.772012 134.141 -163.4030
22.937027 134.140 -163.7244
23.103238 134.139 -164.0434
23.270654 134.137 -164.3603
23.439282 134.136 -164.6755
23.609133 134.135 -164.9893
23.780215 134.134 -165.3024
23.952536 134.133 -165.6152
24.126106 134.132 -165.9278
24.300934 134.131 -166.2404
24.477028 134.130 -166.5529
24.654399 134.129 -166.8647
24.833055 134.128 -167.1755
25.013005 134.127 -167.4846
25.194260 134.126 -167.7914
25.376828 134.126 -168.0954
25.560719 134.125 -168.3963
25.745942 134.125 -168.6939
25.932508 134.124 -168.9882
26.120426 134.123 -169.2794
26.309705 134.122 -169.5679
26.500356 134.121 -169.8539
26.692388 134.119 -170.1379
26.885812 134.117 -170.4201
27.080638 134.113 -170.7008
27.276876 134.109 -170.9803
27.474535 134.104 -171.2586
27.673627 134.099 -171.5361
27.874161 134.093 -171.8129
28.076149 134.087 -172.0895
28.279600 134.081 -172.3664
28.484526 134.075 -172.6439
28.690937 134.069 -172.9225
28.898843 134.064 -173.2026
29.108256 134.059 -173.4840
29.319186 134.054 -173.7665
29.531645 134.049 -174.0495
29.745644 134.045 -174.3321
29.961193 134.040 -174.6133
30.178304 134.035 -174.8921
30.396989 134.030 -175.1679
30.617258 134.024 -175.4402
30.839123 134.018 -175.7091
31.062596 134.012 -175.9752
31.287688 134.006 -176.2393
31.514412 133.999 -176.5024
31.742778 133.992 -176.7655
31.972800 133.984 -177.0295
32.204488 133.976 -177.2946
32.437855 133.968 -177.5611
32.672913 133.959 -177.8284
32.909674 133.951 -178.0960
33.148151 133.942 -178.3633
33.388356 133.933 -178.6296
33.630302 133.924 -178.8945
33.874001 133.915 -179.1575
34.119466 133.906 -179.4186
34.366710 133.897 -179.6777
34.615745 133.888 -179.9349
34.866585 133.878 179.8098
35.119243 133.869 179.5559
35.373731 133.859 179.3033
35.630064 133.849 179.0516
35.888254 133.838 178.8005
36.148315 133.827 178.5496
36.410261 133.816 178.2989
36.674104 133.804 178.0482
36.939860 133.792 177.7979
37.207542 133.780 177.5483
37.477163 133.767 177.2998
37.748738 133.755 177.0529
38.022281 133.742 176.8077
38.297806 133.729 176.5642
38.575327 133.716 176.3220
38.854860 133.703 176.0808
39.136419 133.689 175.8402
39.420017 133.676 175.5998
39.705671 133.662 175.3595
39.993395 133.648 175.1194
40.283203 133.633 174.8796
40.575112 133.619 174.6404
40.869136 133.604 174.4021
41.165290 133.589 174.1646
41.463591 133.573 173.9282
41.764053 133.558 173.6927
42.066693 133.542 173.4581
42.371525 133.526 173.2242
42.678567 133.510 172.9911
42.987834 133.493 172.7587
43.299341 133.476 172.5270
43.613106 133.459 172.2960
43.929145 133.442 172.0659
44.247473 133.425 171.8367
44.568109 133.408 171.6085
44.891068 133.390 171.3817
45.216367 133.373 171.1561
45.544023 133.355 170.9318
45.874054 133.337 170.7086
46.206476 133.319 170.4864
46.541307 133.301 170.2648
46.878565 133.282 170.0438
47.218266 133.263 169.8234
47.560429 133.244 169.6041
47.905072 133.225 169.3862
48.252212 133.205 169.1702
48.601867 133.185 168.9558
48.954056 133.165 168.7426
49.308798 133.145 168.5296
49.666109 133.124 168.3162
50.026010 133.104 168.1020
50.388520 133.083 167.8871
50.753656 133.062 167.6722
51.121437 133.041 167.4580
51.491884 133.020 167.2449
51.865016 132.998 167.0330
52.240851 132.977 166.8223
52.619410 132.955 166.6129
53.000712 132.933 166.4051
53.384777 132.911 166.1993
53.771625 132.888 165.9961
54.161276 132.864 165.7955
54.553751 132.840 165.5974
54.949070 132.816 165.4014
55.347254 132.792 165.2064
55.748323 132.768 165.0118
56.152298 132.743 164.8170
56.559201 132.718 164.6223
56.969052 132.693 164.4282
57.381873 132.667 164.2360
57.797686 132.642 164.0472
58.216512 132.615 163.8627
58.638373 132.589 163.6831
59.063291 132.563 163.5084
59.491288 132.536 163.3381
59.922386 132.510 163.1715
60.356608 132.483 163.0079
60.793977 132.456 162.8464
61.234515 132.430 162.6863
61.678246 132.404 162.5266
62.125192 132.379 162.3665
62.575377 132.355 162.2056
63.028824 132.332 162.0435
63.485557 132.309 161.8802
63.945599 132.286 161.7160
64.408975 132.262 161.5507
64.875709 132.238 161.3843
65.345825 132.214 161.2166
65.819348 132.189 161.0475
66.296302 132.164 160.8774
66.776713 132.138 160.7073
67.260604 132.112 160.5380
67.748002 132.085 160.3704
68.238932 132.059 160.2051
68.733420 132.032 160.0423
69.231490 132.005 159.8820
69.733170 131.978 159.7237
70.238485 131.951 159.5671
70.747463 131.924 159.4118
71.260128 131.897 159.2576
71.776508 131.870 159.1039
72.296630 131.843 158.9505
72.820521 131.816 158.7967
73.348209 131.789 158.6422
73.879720 131.762 158.4869
74.415083 131.735 158.3308
74.954326 131.708 158.1741
75.497475 131.681 158.0168
76.044561 131.654 157.8589
76.595612 131.626 157.7009
77.150655 131.599 157.5432
77.709720 131.571 157.3867
78.272837 131.544 157.2323
78.840034 131.516 157.0808
79.411342 131.488 156.9329
79.986789 131.461 156.7889
80.566406 131.432 156.6491
81.150224 131.404 156.5137
81.738272 131.374 156.3824
82.330581 131.345 156.2550
82.927182 131.314 156.1307
83.528107 131.283 156.0088
84.133386 131.251 155.8881
84.743051 131.218 155.7675
85.357134 131.185 155.6456
85.975667 131.150 155.5218
86.598682 131.116 155.3952
87.226212 131.081 155.2659
87.858289 131.047 155.1345
88.494946 131.013 155.0023
89.136217 130.979 154.8715
89.782135 130.946 154.7441
90.432733 130.913 154.6220
91.088046 130.880 154.5060
91.748108 130.847 154.3956
92.412952 130.813 154.2891
93.082615 130.778 154.1843
93.757130 130.744 154.0797
94.436533 130.708 153.9746
95.120859 130.673 153.8693
95.810144 130.638 153.7648
96.504423 130.602 153.6624
97.203734 130.567 153.5627
97.908112 130.532 153.4659
98.617595 130.496 153.3713
99.332219 130.460 153.2781
100.052021 130.425 153.1859
100.777039 130.389 153.0948
101.507311 130.353 153.0053
102.242875 130.317 152.9180
102.983769 130.281 152.8331
103.730032 130.245 152.7505
104.481702 130.209 152.6697
105.238820 130.173 152.5907
106.001424 130.137 152.5134
106.769554 130.101 152.4375
107.543250 130.065 152.3630
108.322553 130.028 152.2900
109.107503 129.991 152.2188
109.898141 129.954 152.1496
110.694508 129.917 152.0825
111.496646 129.880 152.0173
112.304596 129.843 151.9539
113.118402 129.805 151.8923
113.938104 129.768 151.8323
114.763747 129.731 151.7740
115.595372 129.693 151.7172
116.433024 129.656 151.6619
117.276746 129.618 151.6081
118.126581 129.580 151.5557
118.982575 129.542 151.5049
119.844772 129.504 151.4561
120.713217 129.466 151.4092
121.587954 129.428 151.3647
122.469031 129.390 151.3226
123.356492 129.352 151.2827
124.250384 129.313 151.2447
125.150753 129.275 151.2084
126.057647 129.236 151.1738
126.971113 129.198 151.1410
127.891198 129.159 151.1101
128.817950 129.120 151.0813
129.751418 129.082 151.0544
130.691651 129.043 151.0291
131.638696 129.004 151.0052
132.592604 128.965 150.9828
133.553425 128.926 150.9621
134.521208 128.887 150.9433
135.496004 128.848 150.9265
136.477864 128.808 150.9118
137.466839 128.769 150.8989
138.462981 128.729 150.8878
139.466340 128.690 150.8782
140.476971 128.650 150.8703
141.494925 128.610 150.8644
142.520256 128.569 150.8611
143.553016 128.529 150.8605
144.593260 128.488 150.8629
145.641043 128.447 150.8681
146.696418 128.406 150.8758
147.759441 128.365 150.8862
148.830166 128.323 150.8995
149.908651 128.281 150.9159
150.994951 128.239 150.9357
152.089123 128.196 150.9592
153.191223 128.154 150.9867
154.301310 128.110 151.0186
155.419441 128.067 151.0556
156.545674 128.022 151.0983
157.680069 127.978 151.1473
158.822683 127.933 151.2038
159.973578 127.888 151.2691
161.132813 127.843 151.3447
162.300447 127.797 151.4320
163.476543 127.751 151.5328
164.661162 127.706 151.6487
165.854364 127.662 151.7814
167.056213 127.618 151.9320
168.266772 127.577 152.1010
169.486102 127.537 152.2878
170.714268 127.502 152.4901
171.951334 127.470 152.7041
173.197364 127.443 152.9240
174.452424 127.421 153.1421
175.716578 127.404 153.3495
176.989893 127.392 153.5371
178.272434 127.383 153.6968
179.564270 127.378 153.8228
180.865467 127.373 153.9124
182.176092 127.369 153.9658
183.496216 127.363 153.9862
184.825905 127.355 153.9787
186.165229 127.343 153.9497
187.514259 127.328 153.9057
188.873065 127.310 153.8530
190.241717 127.288 153.7971
191.620287 127.263 153.7427
193.008847 127.235 153.6932
194.407468 127.204 153.6511
195.816225 127.171 153.6180
197.235190 127.137 153.5944
198.664438 127.102 153.5807
200.104042 127.066 153.5767
201.554078 127.029 153.5821
203.014622 126.991 153.5963
204.485750 126.954 153.6189
205.967538 126.916 153.6492
207.460064 126.878 153.6865
208.963405 126.840 153.7302
210.477640 126.802 153.7798
212.002848 126.764 153.8350
213.539108 126.727 153.8954
215.086500 126.690 153.9608
216.645105 126.652 154.0308
218.215005 126.615 154.1052
219.796281 126.579 154.1835
221.389015 126.542 154.2657
222.993292 126.506 154.3513
224.609193 126.470 154.4401
226.236804 126.435 154.5319
227.876209 126.399 154.6265
229.527494 126.364 154.7239
231.190745 126.330 154.8238
232.866048 126.295 154.9262
234.553491 126.261 155.0311
236.253163 126.227 155.1382
237.965150 126.193 155.2475
239.689544 126.159 155.3589
241.426433 126.126 155.4721
243.175909 126.093 155.5870
244.938062 126.061 155.7032
246.712984 126.029 155.8205
248.500768 125.997 155.9389
250.301507 125.965 156.0583
252.115295 125.934 156.1788
253.942226 125.903 156.3002
255.782396 125.872 156.4225
257.635901 125.841 156.5456
259.502837 125.810 156.6696
261.383301 125.779 156.7947
263.277392 125.748 156.9210
265.185209 125.717 157.0486
267.106850 125.687 157.1778
269.042417 125.656 157.3087
270.992009 125.625 157.4413
272.955729 125.595 157.5759
274.933678 125.564 157.7125
276.925961 125.534 157.8511
278.932681 125.504 157.9919
280.953942 125.474 158.1349
282.989850 125.444 158.2797
285.040511 125.415 158.4265
287.106032 125.385 158.5751
289.186521 125.356 158.7255
291.282086 125.327 158.8779
293.392836 125.298 159.0320
295.518881 125.269 159.1880
297.660333 125.241 159.3458
299.817302 125.213 159.5055
301.989902 125.185 159.6672
304.178245 125.157 159.8310
306.382446 125.129 159.9968
308.602620 125.102 160.1647
310.838882 125.075 160.3349
313.091348 125.048 160.5074
315.360137 125.021 160.6823
317.645367 124.995 160.8596
319.947156 124.968 161.0390
322.265625 124.943 161.2205
324.600895 124.918 161.4042
326.953086 124.893 161.5899
329.322323 124.869 161.7775
331.708729 124.845 161.9669
334.112427 124.822 162.1577
336.533543 124.799 162.3493
338.972204 124.777 162.5411
341.428536 124.756 162.7325
343.902668 124.735 162.9225
346.394729 124.715 163.1104
348.904848 124.696 163.2957
351.433156 124.676 163.4779
353.979786 124.657 163.6571
356.544869 124.638 163.8335
359.128540 124.618 164.0076
361.730934 124.599 164.1799
364.352185 124.579 164.3511
366.992431 124.558 164.5219
369.651810 124.538 164.6932
372.330459 124.517 164.8657
375.028519 124.496 165.0400
377.746130 124.475 165.2167
380.483434 124.454 165.3959
383.240574 124.433 165.5776
386.017693 124.412 165.7617
388.814937 124.392 165.9483
391.632450 124.371 166.1371
394.470380 124.350 166.3282
397.328875 124.330 166.5217
400.208084 124.309 166.7172
403.108157 124.289 166.9147
406.029245 124.270 167.1141
408.971500 124.250 167.3151
411.935076 124.231 167.5178
414.920127 124.212 167.7222
417.926810 124.193 167.9280
420.955280 124.174 168.1352
424.005695 124.156 168.3437
427.078215 124.138 168.5535
430.173000 124.120 168.7645
433.290211 124.103 168.9766
436.430010 124.085 169.1897
439.592562 124.068 169.4039
442.778031 124.051 169.6194
445.986583 124.035 169.8364
449.218386 124.018 170.0547
452.473607 124.002 170.2744
455.752418 123.986 170.4955
459.054987 123.970 170.7175
462.381489 123.955 170.9406
465.732096 123.939 171.1647
469.106983 123.924 171.3899
472.506325 123.910 171.6162
475.930301 123.895 171.8436
479.379088 123.881 172.0723
482.852867 123.867 172.3021
486.351817 123.853 172.5332
489.876123 123.839 172.7656
493.425968 123.826 172.9991
497.001536 123.813 173.2339
500.603014 123.800 173.4702
504.230589 123.787 173.7077
507.884452 123.775 173.9466
511.564792 123.762 174.1867
515.271802 123.750 174.4280
519.005673 123.739 174.6704
522.766602 123.727 174.9138
526.554785 123.716 175.1584
530.370418 123.705 175.4040
534.213700 123.694 175.6509
538.084833 123.684 175.8992
541.984018 123.673 176.1490
545.911457 123.663 176.4005
549.867357 123.654 176.6534
553.851922 123.644 176.9080
557.865362 123.635 177.1641
561.907884 123.626 177.4214
565.979700 123.618 177.6801
570.081022 123.610 177.9401
574.212064 123.602 178.2014
578.373042 123.594 178.4642
582.564171 123.587 178.7284
586.785671 123.579 178.9942
591.037762 123.573 179.2615
595.320665 123.566 179.5303
599.634604 123.560 179.8007
603.979804 123.554 -179.9273
608.356491 123.548 -179.6535
612.764893 123.543 -179.3781
617.205240 123.538 -179.1007
621.677763 123.533 -178.8217
626.182696 123.528 -178.5410
630.720274 123.524 -178.2587
635.290733 123.520 -177.9749
639.894312 123.517 -177.6894
644.531250 123.513 -177.4020
649.201789 123.511 -177.1125
653.906173 123.508 -176.8209
658.644647 123.506 -176.5272
663.417457 123.505 -176.2314
668.224854 123.504 -175.9337
673.067086 123.503 -175.6340
677.944408 123.502 -175.3323
682.857073 123.502 -175.0288
687.805336 123.503 -174.7234
692.789457 123.503 -174.4161
697.809695 123.505 -174.1066
702.866312 123.506 -173.7948
707.959571 123.509 -173.4806
713.089738 123.511 -173.1639
718.257080 123.514 -172.8447
723.461867 123.518 -172.5229
728.704370 123.522 -172.1985
733.984862 123.526 -171.8713
739.303619 123.530 -171.5415
744.660918 123.535 -171.2089
750.057038 123.541 -170.8736
755.492260 123.547 -170.5351
760.966869 123.553 -170.1932
766.481148 123.559 -169.8469
772.035387 123.565 -169.4951
777.629873 123.572 -169.1362
783.264900 123.579 -168.7677
788.940760 123.585 -168.3864
794.657750 123.592 -167.9878
800.416168 123.601 -167.5667
806.216313 123.611 -167.1174
812.058489 123.625 -166.6362
817.943000 123.646 -166.1251
823.870152 123.677 -165.5967
829.840255 123.718 -165.0776
835.853619 123.769 -164.6051
841.910559 123.826 -164.2126
848.011390 123.883 -163.9112
854.156430 123.935 -163.6828
860.346000 123.978 -163.4918
866.580422 124.012 -163.3042
872.860020 124.041 -163.0978
879.185124 124.066 -162.8635
885.556062 124.090 -162.6012
891.973166 124.114 -162.3153
898.436771 124.139 -162.0113
904.947215 124.165 -161.6944
911.504835 124.194 -161.3683
918.109975 124.223 -161.0350
924.762978 124.254 -160.6947
931.464192 124.286 -160.3460
938.213966 124.320 -159.9860
945.012651 124.356 -159.6115
951.860602 124.395 -159.2200
958.758176 124.439 -158.8128
965.705733 124.490 -158.3985
972.703635 124.548 -157.9937
979.752246 124.612 -157.6205
986.851935 124.681 -157.2965
994.003071 124.751 -157.0262
1001.206027 124.819 -156.8006
1008.461179 124.884 -156.6040
1015.768904 124.946 -156.4217
1023.129584 125.006 -156.2444
1030.543603 125.064 -156.0674
1038.011347 125.122 -155.8901
1045.533205 125.179 -155.7135
1053.109569 125.238 -155.5392
1060.740836 125.297 -155.3690
1068.427401 125.356 -155.2044
1076.169666 125.417 -155.0467
1083.968035 125.478 -154.8969
1091.822915 125.539 -154.7559
1099.734713 125.601 -154.6241
1107.703844 125.663 -154.5019
1115.730723 125.725 -154.3895
1123.815768 125.788 -154.2869
1131.959400 125.850 -154.1942
1140.162045 125.913 -154.1113
1148.424129 125.975 -154.0378
1156.746083 126.037 -153.9735
1165.128342 126.099 -153.9182
1173.571343 126.161 -153.8718
1182.075524 126.223 -153.8340
1190.641331 126.284 -153.8046
1199.269209 126.344 -153.7832
1207.959608 126.405 -153.7695
1216.712981 126.464 -153.7630
1225.529785 126.524 -153.7636
1234.410479 126.583 -153.7710
1243.355526 126.641 -153.7850
1252.365393 126.699 -153.8057
1261.440549 126.756 -153.8328
1270.581467 126.813 -153.8658
1279.788624 126.869 -153.9044
1289.062500 126.925 -153.9482
1298.403578 126.980 -153.9969
1307.812346 127.035 -154.0505
1317.289293 127.089 -154.1089
1326.834914 127.143 -154.1720
1336.449707 127.197 -154.2396
1346.134173 127.250 -154.3114
1355.888816 127.302 -154.3873
1365.714145 127.355 -154.4672
1375.610673 127.407 -154.5511
1385.578915 127.458 -154.6393
1395.619391 127.509 -154.7317
1405.732624 127.560 -154.8284
1415.919142 127.611 -154.9295
1426.179476 127.661 -155.0349
1436.514160 127.711 -155.1446
1446.923734 127.760 -155.2587
1457.408740 127.810 -155.3770
1467.969724 127.859 -155.4996
1478.607238 127.907 -155.6268
1489.321836 127.956 -155.7585
1500.114076 128.004 -155.8949
1510.984521 128.052 -156.0361
1521.933737 128.099 -156.1823
1532.962297 128.147 -156.3335
1544.070773 128.194 -156.4901
1555.259747 128.240 -156.6520
1566.529800 128.287 -156.8194
1577.881521 128.333 -156.9925
1589.315501 128.379 -157.1712
1600.832336 128.424 -157.3557
1612.432627 128.469 -157.5460
1624.116978 128.513 -157.7422
1635.886000 128.557 -157.9444
1647.740304 128.601 -158.1528
1659.680509 128.644 -158.3675
1671.707238 128.686 -158.5887
1683.821118 128.728 -158.8164
1696.022780 128.769 -159.0506
1708.312860 128.810 -159.2915
1720.692000 128.849 -159.5389
1733.160843 128.888 -159.7930
1745.720041 128.926 -160.0537
1758.370248 128.964 -160.3209
1771.112124 129.000 -160.5946
1783.946332 129.036 -160.8746
1796.873543 129.070 -161.1606
1809.894429 129.104 -161.4527
1823.009670 129.136 -161.7508
1836.219950 129.167 -162.0548
1849.525956 129.197 -162.3644
1862.928384 129.226 -162.6796
1876.427931 129.253 -163.0000
1890.025301 129.279 -163.3255
1903.721204 129.304 -163.6556
1917.516352 129.327 -163.9901
1931.411466 129.349 -164.3286
1945.407270 129.369 -164.6708
1959.504493 129.388 -165.0163
1973.703870 129.405 -165.3649
1988.006142 129.421 -165.7161
2002.412054 129.435 -166.0693
2016.922357 129.447 -166.4243
2031.537808 129.457 -166.7804
2046.259169 129.466 -167.1373
2061.087206 129.473 -167.4944
2076.022694 129.478 -167.8513
2091.066410 129.481 -168.2076
2106.219139 129.483 -168.5626
2121.481671 129.483 -168.9160
2136.854802 129.481 -169.2672
2152.339333 129.477 -169.6157
2167.936071 129.472 -169.9608
2183.645829 129.465 -170.3021
2199.469427 129.456 -170.6390
2215.407689 129.445 -170.9710
2231.461446 129.433 -171.2977
2247.631536 129.420 -171.6188
2263.918800 129.404 -171.9337
2280.324089 129.388 -172.2420
2296.848258 129.369 -172.5434
2313.492167 129.350 -172.8373
2330.256685 129.329 -173.1236
2347.142685 129.306 -173.4017
2364.151049 129.283 -173.6714
2381.282662 129.258 -173.9324
2398.538418 129.232 -174.1844
2415.919216 129.205 -174.4272
2433.425962 129.178 -174.6605
2451.059570 129.149 -174.8842
2468.820958 129.119 -175.0980
2486.711052 129.089 -175.3020
2504.730786 129.058 -175.4959
2522.881098 129.026 -175.6797
2541.162934 128.994 -175.8533
2559.577248 128.961 -176.0169
2578.125000 128.928 -176.1703
2596.807157 128.895 -176.3137
2615.624692 128.861 -176.4471
2634.578586 128.827 -176.5704
2653.669829 128.793 -176.6838
2672.899414 128.759 -176.7874
2692.268345 128.725 -176.8815
2711.777632 128.691 -176.9661
2731.428290 128.657 -177.0415
2751.221345 128.623 -177.1078
2771.157829 128.590 -177.1654
2791.238781 128.557 -177.2143
2811.465248 128.524 -177.2550
2831.838284 128.491 -177.2876
