* Measurement data measured by REW V5.20.9
* Source: Input device not selected, no input selected, L, volume: no control. Timing signal peak level -43,7 dBFS, measurement signal peak level -11,6 dBFS
* Format: 256k Log Swept Sine, 1 sweep at -12,0 dBFS using an acoustic timing reference
* Dated: 21.04.2023 20:35:48
* REW Settings:
*  C-weighting compensation: Off
*  Target level: 75.0 dB
* Note: Delay -0,0090 ms (-3,1 mm, -0,12 in) using estimated IR delay relative to Acoustic reference on  L with no timing offset
* Measurement: DTE500
* Smoothing: 1/12 octave
* Frequency Step: 96 ppo
* Start Frequency: 20.187378 Hz
*
* Freq(Hz) SPL(dB) Phase(degrees)
20.187378 116.897 -135.4718
20.333664 116.903 -135.6607
20.481010 116.910 -135.9405
20.629424 116.920 -136.2854
20.778913 116.932 -136.6718
20.929486 116.947 -137.0803
21.081150 116.966 -137.4963
21.233912 116.990 -137.9100
21.387782 117.022 -138.3152
21.542767 117.063 -138.7093
21.698874 117.113 -139.0925
21.856113 117.172 -139.4672
22.014492 117.240 -139.8367
22.174018 117.314 -140.2047
22.334700 117.391 -140.5739
22.496546 117.469 -140.9450
22.659566 117.544 -141.3165
22.823766 117.612 -141.6843
22.989157 117.670 -142.0422
23.155745 117.716 -142.3824
23.323542 117.748 -142.6969
23.492554 117.767 -142.9785
23.662790 117.772 -143.2224
23.834261 117.765 -143.4271
24.006973 117.748 -143.5957
24.180938 117.725 -143.7361
24.356163 117.698 -143.8605
24.532658 117.671 -143.9850
24.710431 117.647 -144.1269
24.889493 117.627 -144.3032
25.069853 117.614 -144.5276
25.251519 117.607 -144.8091
25.434502 117.607 -145.1500
25.618811 117.613 -145.5458
25.804456 117.625 -145.9861
25.991445 117.641 -146.4558
26.179790 117.661 -146.9376
26.369500 117.685 -147.4141
26.560584 117.711 -147.8704
26.753053 117.739 -148.2955
26.946917 117.769 -148.6835
27.142185 117.800 -149.0334
27.338869 117.831 -149.3489
27.536977 117.861 -149.6370
27.736522 117.889 -149.9067
27.937512 117.914 -150.1673
28.139959 117.936 -150.4272
28.343872 117.955 -150.6936
28.549264 117.970 -150.9715
28.756143 117.983 -151.2638
28.964522 117.993 -151.5717
29.174411 118.002 -151.8949
29.385821 118.011 -152.2316
29.598763 118.021 -152.5792
29.813248 118.032 -152.9339
30.029287 118.044 -153.2918
30.246891 118.058 -153.6482
30.466073 118.074 -153.9991
30.686842 118.090 -154.3409
30.909212 118.106 -154.6716
31.133193 118.123 -154.9907
31.358797 118.139 -155.3000
31.586035 118.154 -155.6024
31.814921 118.168 -155.9020
32.045465 118.181 -156.2027
32.277680 118.192 -156.5072
32.511577 118.202 -156.8162
32.747169 118.209 -157.1278
32.984469 118.216 -157.4381
33.223488 118.221 -157.7425
33.464239 118.227 -158.0369
33.706735 118.234 -158.3197
33.950987 118.243 -158.5931
34.197010 118.256 -158.8631
34.444816 118.272 -159.1388
34.694417 118.291 -159.4302
34.945827 118.311 -159.7457
35.199059 118.331 -160.0894
35.454126 118.348 -160.4600
35.711041 118.361 -160.8508
35.969818 118.370 -161.2513
36.230470 118.374 -161.6501
36.493011 118.376 -162.0376
36.757455 118.376 -162.4086
37.023814 118.377 -162.7626
37.292104 118.378 -163.1023
37.562338 118.380 -163.4310
37.834530 118.382 -163.7495
38.108695 118.384 -164.0547
38.384846 118.384 -164.3396
38.662999 118.382 -164.5964
38.943167 118.380 -164.8201
39.225365 118.379 -165.0125
39.509608 118.381 -165.1833
39.795911 118.386 -165.3488
40.084289 118.394 -165.5271
40.374756 118.401 -165.7327
40.667328 118.406 -165.9721
40.962020 118.406 -166.2426
41.258848 118.400 -166.5349
41.557827 118.390 -166.8378
41.858972 118.377 -167.1432
42.162299 118.363 -167.4488
42.467824 118.352 -167.7576
42.775564 118.343 -168.0749
43.085533 118.336 -168.4037
43.397749 118.332 -168.7424
43.712227 118.329 -169.0845
44.028983 118.326 -169.4216
44.348036 118.324 -169.7468
44.669400 118.321 -170.0574
44.993093 118.319 -170.3546
45.319131 118.317 -170.6414
45.647532 118.315 -170.9200
45.978313 118.313 -171.1905
46.311491 118.311 -171.4511
46.647083 118.308 -171.7004
46.985107 118.306 -171.9390
47.325581 118.304 -172.1703
47.668521 118.302 -172.3988
48.013947 118.299 -172.6289
48.361876 118.294 -172.8633
48.712326 118.286 -173.1031
49.065315 118.276 -173.3495
49.420863 118.264 -173.6042
49.778987 118.252 -173.8699
50.139706 118.241 -174.1487
50.503039 118.232 -174.4401
50.869005 118.223 -174.7405
51.237623 118.216 -175.0432
51.608912 118.209 -175.3402
51.982891 118.202 -175.6255
52.359580 118.195 -175.8961
52.739000 118.188 -176.1534
53.121168 118.180 -176.4015
53.506106 118.172 -176.6457
53.893833 118.163 -176.8903
54.284370 118.154 -177.1374
54.677737 118.144 -177.3868
55.073955 118.134 -177.6367
55.473043 118.123 -177.8853
55.875024 118.111 -178.1317
56.279917 118.099 -178.3763
56.687745 118.086 -178.6205
57.098527 118.073 -178.8661
57.512287 118.059 -179.1134
57.929045 118.046 -179.3615
58.348822 118.032 -179.6076
58.771642 118.019 -179.8488
59.197525 118.006 179.9166
59.626495 117.994 179.6889
60.058573 117.983 179.4667
60.493782 117.972 179.2482
60.932145 117.961 179.0317
61.373685 117.948 178.8168
61.818424 117.935 178.6032
62.266386 117.922 178.3904
62.717593 117.909 178.1775
63.172071 117.897 177.9635
63.629842 117.885 177.7483
64.090930 117.872 177.5334
64.555359 117.859 177.3214
65.023154 117.844 177.1136
65.494339 117.829 176.9092
65.968938 117.812 176.7050
66.446976 117.794 176.4986
66.928478 117.776 176.2902
67.413469 117.759 176.0834
67.901975 117.742 175.8823
68.394021 117.725 175.6877
68.889632 117.709 175.4952
69.388835 117.691 175.2953
69.891655 117.674 175.0759
70.398118 117.657 174.8264
70.908252 117.642 174.5443
71.422083 117.629 174.2414
71.939636 117.617 173.9429
72.460941 117.606 173.6771
72.986023 117.596 173.4603
73.514909 117.588 173.2895
74.047629 117.583 173.1480
74.584208 117.581 173.0183
75.124676 117.580 172.8909
75.669061 117.579 172.7638
76.217390 117.574 172.6388
76.769692 117.561 172.5175
77.325997 117.537 172.3979
77.886333 117.503 172.2719
78.450730 117.463 172.1278
79.019216 117.421 171.9580
79.591822 117.383 171.7662
80.168577 117.351 171.5656
80.749512 117.324 171.3703
81.334656 117.302 171.1878
81.924040 117.283 171.0179
82.517696 117.264 170.8553
83.115653 117.247 170.6942
83.717943 117.230 170.5318
84.324598 117.212 170.3687
84.935649 117.193 170.2063
85.551128 117.174 170.0442
86.171066 117.153 169.8810
86.795497 117.131 169.7158
87.424453 117.109 169.5498
88.057967 117.088 169.3853
88.696071 117.066 169.2238
89.338800 117.044 169.0648
89.986185 117.022 168.9069
90.638262 117.001 168.7494
91.295065 116.979 168.5936
91.956626 116.956 168.4411
92.622982 116.934 168.2924
93.294166 116.911 168.1467
93.970214 116.888 168.0027
94.651161 116.866 167.8600
95.337042 116.843 167.7192
96.027894 116.820 167.5812
96.723752 116.796 167.4459
97.424652 116.773 167.3128
98.130631 116.749 167.1809
98.841726 116.725 167.0494
99.557974 116.701 166.9174
100.279412 116.677 166.7847
101.006078 116.653 166.6514
101.738010 116.629 166.5189
102.475245 116.606 166.3882
103.217823 116.582 166.2604
103.965782 116.559 166.1350
104.719161 116.536 166.0115
105.477999 116.512 165.8894
106.242336 116.488 165.7686
107.012212 116.464 165.6494
107.787666 116.439 165.5325
108.568740 116.415 165.4179
109.355474 116.390 165.3049
110.147909 116.366 165.1929
110.946086 116.342 165.0817
111.750047 116.318 164.9717
112.559834 116.293 164.8635
113.375489 116.269 164.7567
114.197055 116.244 164.6514
115.024574 116.219 164.5474
115.858089 116.194 164.4445
116.697645 116.169 164.3418
117.543284 116.144 164.2387
118.395051 116.119 164.1356
119.252990 116.094 164.0333
120.117147 116.069 163.9329
120.987565 116.044 163.8349
121.864291 116.018 163.7391
122.747370 115.992 163.6452
123.636848 115.967 163.5526
124.532771 115.941 163.4606
125.435187 115.916 163.3689
126.344142 115.891 163.2778
127.259684 115.865 163.1882
128.181860 115.839 163.1012
129.110718 115.814 163.0173
130.046308 115.788 162.9363
130.988677 115.761 162.8570
131.937875 115.735 162.7779
132.893951 115.709 162.6979
133.856956 115.683 162.6166
134.826938 115.657 162.5353
135.803950 115.632 162.4552
136.788041 115.606 162.3771
137.779264 115.580 162.3008
138.777669 115.554 162.2253
139.783309 115.528 162.1503
140.796237 115.502 162.0761
141.816504 115.477 162.0035
142.844165 115.453 161.9329
143.879273 115.430 161.8637
144.921881 115.406 161.7961
145.972045 115.381 161.7303
147.029819 115.354 161.6667
148.095257 115.323 161.6048
149.168417 115.289 161.5452
150.249353 115.254 161.4897
151.338121 115.219 161.4390
152.434780 115.185 161.3905
153.539385 115.152 161.3420
154.651995 115.122 161.2940
155.772667 115.092 161.2485
156.901460 115.063 161.2053
158.038432 115.035 161.1621
159.183644 115.006 161.1169
160.337154 114.978 161.0696
161.499023 114.948 161.0217
162.669312 114.918 160.9750
163.848081 114.888 160.9304
165.035392 114.857 160.8878
166.231306 114.826 160.8471
167.435887 114.794 160.8084
168.649196 114.761 160.7717
169.871298 114.727 160.7378
171.102255 114.693 160.7089
172.342133 114.657 160.6877
173.590995 114.621 160.6755
174.848907 114.584 160.6718
176.115934 114.547 160.6750
177.392143 114.510 160.6847
178.677599 114.472 160.7018
179.972371 114.433 160.7289
181.276525 114.394 160.7693
182.590129 114.353 160.8268
183.913252 114.313 160.9052
185.245964 114.272 161.0081
186.588332 114.232 161.1384
187.940428 114.193 161.2994
189.302322 114.156 161.4944
190.674085 114.123 161.7250
192.055788 114.095 161.9898
193.447503 114.074 162.2841
194.849303 114.061 162.5990
196.261262 114.058 162.9202
197.683452 114.065 163.2280
199.115948 114.082 163.4999
200.558824 114.109 163.7143
202.012156 114.142 163.8541
203.476019 114.178 163.9084
204.950490 114.215 163.8745
206.435646 114.248 163.7591
207.931564 114.275 163.5784
209.438322 114.294 163.3529
210.955998 114.304 163.1019
212.484672 114.306 162.8406
214.024424 114.300 162.5797
215.575333 114.287 162.3267
217.137481 114.269 162.0874
218.710948 114.247 161.8656
220.295818 114.222 161.6631
221.892172 114.196 161.4796
223.500094 114.167 161.3135
225.119668 114.137 161.1630
226.750978 114.106 161.0270
228.394109 114.075 160.9048
230.049147 114.043 160.7957
231.716178 114.010 160.6985
233.395289 113.977 160.6109
235.086567 113.944 160.5306
236.790102 113.911 160.4563
238.505980 113.877 160.3880
240.234293 113.844 160.3257
241.975130 113.810 160.2692
243.728581 113.777 160.2182
245.494739 113.743 160.1724
247.273695 113.710 160.1320
249.065542 113.676 160.0969
250.870374 113.643 160.0669
252.688284 113.609 160.0414
254.519367 113.576 160.0197
256.363720 113.542 160.0013
258.221437 113.508 159.9860
260.092616 113.474 159.9741
261.977354 113.440 159.9661
263.875750 113.406 159.9622
265.787903 113.373 159.9617
267.713911 113.339 159.9635
269.653877 113.305 159.9667
271.607900 113.272 159.9709
273.576083 113.239 159.9762
275.558528 113.205 159.9830
277.555338 113.172 159.9919
279.566619 113.139 160.0035
281.592474 113.106 160.0183
283.633009 113.072 160.0364
285.688331 113.038 160.0578
287.758546 113.004 160.0825
289.843763 112.970 160.1104
291.944090 112.936 160.1420
294.059638 112.901 160.1782
296.190515 112.866 160.2200
298.336833 112.830 160.2687
300.498705 112.793 160.3248
302.676243 112.756 160.3867
304.869559 112.719 160.4491
307.078770 112.683 160.5034
309.303989 112.650 160.5434
311.545334 112.618 160.5718
313.802919 112.587 160.5972
316.076865 112.557 160.6272
318.367288 112.525 160.6653
320.674309 112.492 160.7121
322.998047 112.459 160.7667
325.338624 112.425 160.8280
327.696162 112.391 160.8946
330.070783 112.356 160.9656
332.462612 112.321 161.0403
334.871773 112.287 161.1185
337.298392 112.253 161.1996
339.742595 112.219 161.2830
342.204510 112.186 161.3681
344.684265 112.153 161.4539
347.181989 112.120 161.5396
349.697813 112.087 161.6247
352.231868 112.054 161.7094
354.784285 112.021 161.7937
357.355198 111.987 161.8776
359.944741 111.954 161.9609
362.553049 111.920 162.0443
365.180258 111.885 162.1287
367.826505 111.850 162.2151
370.491927 111.814 162.3047
373.176665 111.777 162.3981
375.880856 111.740 162.4958
378.604644 111.702 162.5979
381.348169 111.663 162.7044
384.111575 111.625 162.8160
386.895006 111.586 162.9334
389.698607 111.547 163.0569
392.522524 111.507 163.1869
395.366904 111.468 163.3237
398.231895 111.428 163.4674
401.117648 111.388 163.6180
404.024312 111.348 163.7749
406.952038 111.308 163.9376
409.900981 111.268 164.1060
412.871292 111.227 164.2808
415.863128 111.186 164.4633
418.876643 111.145 164.6542
421.911996 111.104 164.8541
424.969344 111.063 165.0623
428.048847 111.022 165.2784
431.150666 110.981 165.5027
434.274961 110.940 165.7363
437.421897 110.899 165.9806
440.591636 110.858 166.2372
443.784345 110.817 166.5073
447.000189 110.776 166.7923
450.239337 110.736 167.0930
453.501956 110.697 167.4097
456.788219 110.658 167.7425
460.098294 110.621 168.0915
463.432356 110.585 168.4571
466.790578 110.551 168.8403
470.173135 110.520 169.2428
473.580203 110.491 169.6664
477.011961 110.465 170.1118
480.468586 110.444 170.5775
483.950259 110.429 171.0585
487.457163 110.421 171.5455
490.989478 110.419 172.0253
494.547390 110.425 172.4839
498.131084 110.436 172.9099
501.740748 110.451 173.2968
505.376568 110.468 173.6426
509.038735 110.485 173.9489
512.727439 110.499 174.2202
516.442874 110.511 174.4653
520.185232 110.520 174.6961
523.954708 110.527 174.9229
527.751500 110.532 175.1516
531.575805 110.537 175.3838
535.427822 110.541 175.6192
539.307753 110.545 175.8566
543.215800 110.550 176.0953
547.152165 110.555 176.3342
551.117055 110.562 176.5718
555.110677 110.569 176.8062
559.133237 110.577 177.0353
563.184947 110.586 177.2570
567.266018 110.595 177.4694
571.376661 110.605 177.6718
575.517092 110.614 177.8644
579.687526 110.624 178.0482
583.888181 110.633 178.2245
588.119275 110.643 178.3943
592.381030 110.651 178.5585
596.673667 110.659 178.7177
600.997410 110.665 178.8720
605.352485 110.671 179.0215
609.739119 110.676 179.1664
614.157540 110.679 179.3074
618.607979 110.682 179.4456
623.090667 110.683 179.5821
627.605839 110.684 179.7186
632.153730 110.683 179.8564
636.734576 110.682 179.9967
641.348617 110.679 -179.8600
645.996094 110.677 -179.7134
650.677248 110.673 -179.5637
655.392323 110.669 -179.4110
660.141566 110.664 -179.2554
664.925224 110.659 -179.0964
669.743546 110.653 -178.9338
674.596784 110.646 -178.7669
679.485191 110.639 -178.5949
684.409020 110.632 -178.4173
689.368530 110.624 -178.2341
694.363979 110.616 -178.0451
699.395626 110.609 -177.8504
704.463736 110.601 -177.6503
709.568570 110.594 -177.4451
714.710396 110.587 -177.2349
719.889483 110.581 -177.0198
725.106099 110.574 -176.7996
730.360516 110.568 -176.5744
735.653010 110.563 -176.3448
740.983855 110.557 -176.1116
746.353329 110.552 -175.8758
751.761713 110.548 -175.6380
757.209288 110.543 -175.3985
762.696339 110.537 -175.1563
768.223151 110.532 -174.9092
773.790013 110.526 -174.6544
779.397214 110.520 -174.3898
785.045047 110.515 -174.1145
790.733808 110.510 -173.8289
796.463791 110.507 -173.5341
802.235296 110.504 -173.2316
808.048623 110.502 -172.9226
813.904077 110.501 -172.6081
819.801961 110.502 -172.2885
825.742584 110.503 -171.9634
831.726255 110.505 -171.6325
837.753287 110.509 -171.2949
843.823992 110.514 -170.9500
849.938689 110.520 -170.5973
856.097695 110.528 -170.2368
862.301332 110.538 -169.8695
868.549922 110.550 -169.4970
874.843793 110.565 -169.1217
881.183272 110.582 -168.7460
887.568689 110.601 -168.3719
894.000378 110.623 -168.0010
900.478673 110.647 -167.6340
907.003913 110.673 -167.2712
913.576437 110.700 -166.9131
920.196588 110.729 -166.5599
926.864712 110.760 -166.2123
933.581156 110.792 -165.8705
940.346270 110.826 -165.5349
947.160407 110.861 -165.2052
954.023921 110.897 -164.8812
960.937172 110.935 -164.5628
967.900519 110.975 -164.2501
974.914325 111.016 -163.9434
981.978956 111.058 -163.6431
989.094780 111.101 -163.3499
996.262169 111.146 -163.0646
1003.481495 111.192 -162.7878
1010.753136 111.239 -162.5203
1018.077470 111.288 -162.2626
1025.454879 111.338 -162.0151
1032.885748 111.389 -161.7779
1040.370463 111.441 -161.5509
1047.909417 111.493 -161.3340
1055.503000 111.547 -161.1276
1063.151610 111.602 -160.9321
1070.855645 111.657 -160.7483
1078.615506 111.713 -160.5766
1086.431599 111.769 -160.4173
1094.304330 111.826 -160.2705
1102.234110 111.883 -160.1358
1110.221353 111.940 -160.0129
1118.266475 111.998 -159.9017
1126.369895 112.055 -159.8019
1134.532035 112.113 -159.7135
1142.753322 112.170 -159.6366
1151.034184 112.227 -159.5714
1159.375052 112.284 -159.5180
1167.776361 112.340 -159.4765
1176.238550 112.396 -159.4465
1184.762060 112.452 -159.4275
1193.347334 112.508 -159.4188
1201.994821 112.562 -159.4197
1210.704971 112.616 -159.4296
1219.478238 112.670 -159.4483
1228.315080 112.722 -159.4757
1237.215957 112.774 -159.5121
1246.181334 112.826 -159.5578
1255.211678 112.876 -159.6131
1264.307459 112.926 -159.6777
1273.469152 112.975 -159.7510
1282.697235 113.022 -159.8323
1291.992188 113.069 -159.9211
1301.354495 113.115 -160.0171
1310.784647 113.160 -160.1202
1320.283132 113.204 -160.2305
1329.850448 113.247 -160.3484
1339.487093 113.288 -160.4738
1349.193569 113.329 -160.6068
1358.970381 113.368 -160.7470
1368.818041 113.406 -160.8939
1378.737061 113.443 -161.0471
1388.727958 113.478 -161.2061
1398.791253 113.512 -161.3705
1408.927471 113.544 -161.5401
1419.137140 113.574 -161.7149
1429.420793 113.603 -161.8945
1439.778965 113.630 -162.0788
1450.212197 113.655 -162.2671
1460.721033 113.678 -162.4589
1471.306019 113.699 -162.6532
1481.967709 113.718 -162.8488
1492.706658 113.735 -163.0447
1503.523426 113.750 -163.2399
1514.418576 113.762 -163.4333
1525.392678 113.772 -163.6241
1536.446302 113.779 -163.8110
1547.580025 113.784 -163.9931
1558.794428 113.787 -164.1691
1570.090095 113.788 -164.3378
1581.467615 113.786 -164.4976
1592.927581 113.782 -164.6468
1604.470591 113.775 -164.7838
1616.097246 113.767 -164.9068
1627.808153 113.757 -165.0147
1639.603922 113.745 -165.1062
1651.485168 113.731 -165.1806
1663.452510 113.716 -165.2368
1675.506573 113.700 -165.2738
1687.647984 113.683 -165.2906
1699.877377 113.665 -165.2861
1712.195390 113.647 -165.2592
1724.602663 113.628 -165.2092
1737.099845 113.610 -165.1359
1749.687587 113.592 -165.0392
1762.366544 113.575 -164.9192
1775.137379 113.558 -164.7761
1788.000756 113.543 -164.6105
1800.957346 113.530 -164.4226
1814.007826 113.519 -164.2131
1827.152874 113.510 -163.9823
1840.393177 113.503 -163.7309
1853.729425 113.499 -163.4601
1867.162312 113.498 -163.1712
1880.692540 113.500 -162.8659
1894.320813 113.506 -162.5461
1908.047843 113.515 -162.2136
1921.874344 113.528 -161.8702
1935.801038 113.545 -161.5173
1949.828650 113.565 -161.1563
1963.957912 113.590 -160.7884
1978.189561 113.620 -160.4151
1992.524338 113.653 -160.0383
2006.962991 113.691 -159.6598
2021.506272 113.733 -159.2815
2036.154940 113.780 -158.9055
2050.909758 113.832 -158.5336
2065.771495 113.888 -158.1681
2080.740927 113.948 -157.8106
2095.818833 114.013 -157.4630
2111.006001 114.082 -157.1268
2126.303220 114.156 -156.8037
2141.711290 114.234 -156.4956
2157.231013 114.316 -156.2046
2172.863198 114.402 -155.9326
2188.608660 114.492 -155.6815
2204.468221 114.586 -155.4532
2220.442706 114.684 -155.2494
2236.532950 114.786 -155.0717
2252.739789 114.890 -154.9220
2269.064070 114.999 -154.8020
2285.506644 115.110 -154.7134
2302.068367 115.223 -154.6580
2318.750104 115.340 -154.6375
2335.552723 115.458 -154.6537
2352.477101 115.578 -154.7079
2369.524119 115.700 -154.8016
2386.694668 115.823 -154.9360
2403.989641 115.947 -155.1121
2421.409941 116.071 -155.3306
2438.956476 116.195 -155.5922
2456.630160 116.319 -155.8976
2474.431915 116.442 -156.2472
2492.362668 116.564 -156.6416
2510.423356 116.684 -157.0811
2528.614918 116.801 -157.5659
2546.938304 116.916 -158.0954
2565.394469 117.027 -158.6691
2583.984375 117.134 -159.2858
2602.708991 117.237 -159.9439
2621.569293 117.335 -160.6414
2640.566265 117.428 -161.3758
2659.700897 117.514 -162.1444
2678.974186 117.594 -162.9442
2698.387137 117.666 -163.7718
2717.940763 117.732 -164.6237
2737.636082 117.790 -165.4962
