* Measurement data measured by REW V5.20.9
* Source: Микрофон (2- HiBy FC3), MICROPHONE (Общая громкость), L, volume: 0,900. Timing signal peak level 0,0 dBFS, measurement signal peak level zero
* Format: 256k Log Swept Sine, 1 sweep at -12,0 dBFS using an acoustic timing reference
* Dated: 17.03.2023 23:39:20
* REW Settings:
*  C-weighting compensation: Off
*  Target level: 75.0 dB
* Note: 
* Measurement: sr05
* Smoothing: 1/12 octave
* Frequency Step: 96 ppo
* Start Frequency: 20.187378 Hz
*
* Freq(Hz) SPL(dB) Phase(degrees)
20.187378 85.840 176.3796
20.333664 85.840 176.4422
20.481010 85.840 176.4367
20.629424 85.838 176.3813
20.778913 85.836 176.2915
20.929486 85.831 176.1787
21.081150 85.826 176.0382
21.233912 85.818 175.8764
21.387782 85.809 175.7076
21.542767 85.798 175.5344
21.698874 85.787 175.3594
21.856113 85.776 175.1847
22.014492 85.764 175.0110
22.174018 85.753 174.8311
22.334700 85.743 174.6553
22.496546 85.735 174.4837
22.659566 85.728 174.3160
22.823766 85.723 174.1511
22.989157 85.720 173.9878
23.155745 85.720 173.7965
23.323542 85.720 173.6024
23.492554 85.722 173.4068
23.662790 85.724 173.2100
23.834261 85.725 173.0125
24.006973 85.726 172.8168
24.180938 85.724 172.6452
24.356163 85.721 172.4781
24.532658 85.717 172.3171
24.710431 85.710 172.1635
24.889493 85.702 172.0176
25.069853 85.693 171.8784
25.251519 85.682 171.7444
25.434502 85.671 171.6151
25.618811 85.660 171.4886
25.804456 85.649 171.3631
25.991445 85.640 171.2375
26.179790 85.631 171.0670
26.369500 85.622 170.8931
26.560584 85.615 170.7186
26.753053 85.608 170.5443
26.946917 85.601 170.3715
27.142185 85.595 170.2349
27.338869 85.589 170.1142
27.536977 85.583 169.9966
27.736522 85.577 169.8816
27.937512 85.571 169.7681
28.139959 85.564 169.6407
28.343872 85.556 169.5061
28.549264 85.548 169.3701
28.756143 85.540 169.2325
28.964522 85.531 169.0938
29.174411 85.523 168.9091
29.385821 85.514 168.7156
29.598763 85.506 168.5242
29.813248 85.497 168.3356
30.029287 85.489 168.1539
30.246891 85.481 167.9983
30.466073 85.472 167.8460
30.686842 85.464 167.6965
30.909212 85.455 167.5493
31.133193 85.446 167.3874
31.358797 85.436 167.2156
31.586035 85.426 167.0450
31.814921 85.416 166.8757
32.045465 85.405 166.7087
32.277680 85.395 166.5473
32.511577 85.384 166.3873
32.747169 85.374 166.2287
32.984469 85.364 166.0714
33.223488 85.355 165.9121
33.464239 85.345 165.7539
33.706735 85.336 165.5974
33.950987 85.326 165.4429
34.197010 85.317 165.2864
34.444816 85.307 165.1316
34.694417 85.299 164.9796
34.945827 85.290 164.8304
35.199059 85.283 164.6762
35.454126 85.275 164.5221
35.711041 85.268 164.3696
35.969818 85.260 164.2185
36.230470 85.251 164.0646
36.493011 85.241 163.9111
36.757455 85.232 163.7586
37.023814 85.222 163.6080
37.292104 85.213 163.4684
37.562338 85.203 163.3311
37.834530 85.193 163.1966
38.108695 85.182 163.0485
38.384846 85.171 162.8781
38.662999 85.158 162.7110
38.943167 85.146 162.5470
39.225365 85.135 162.4512
39.509608 85.124 162.3741
39.795911 85.113 162.2981
40.084289 85.101 162.1772
40.374756 85.089 161.9454
40.667328 85.075 161.7130
40.962020 85.060 161.4807
41.258848 85.045 161.4014
41.557827 85.030 161.3473
41.858972 85.016 161.2964
42.162299 85.002 161.1505
42.467824 84.988 160.9209
42.775564 84.973 160.6930
43.085533 84.958 160.4827
43.397749 84.942 160.3169
43.712227 84.925 160.1529
44.028983 84.909 159.9991
44.348036 84.895 159.9294
44.669400 84.882 159.8625
44.993093 84.870 159.7981
45.319131 84.857 159.5094
45.647532 84.844 159.2165
45.978313 84.830 158.9244
46.311491 84.814 158.7960
46.647083 84.799 158.6800
46.985107 84.784 158.5638
47.325581 84.771 158.4714
47.668521 84.758 158.3780
48.013947 84.745 158.2747
48.361876 84.730 157.9659
48.712326 84.713 157.6606
49.065315 84.694 157.3908
49.420863 84.674 157.2556
49.778987 84.654 157.1307
50.139706 84.637 157.0508
50.503039 84.623 157.0343
50.869005 84.611 157.0186
51.237623 84.600 156.8711
51.608912 84.589 156.6489
51.982891 84.575 156.4249
52.359580 84.559 156.1754
52.739000 84.541 155.9237
53.121168 84.521 155.7239
53.506106 84.501 155.6386
53.893833 84.483 155.5530
54.284370 84.466 155.4580
54.677737 84.451 155.3605
55.073955 84.438 155.2380
55.473043 84.424 154.9980
55.875024 84.410 154.7604
56.279917 84.395 154.5230
56.687745 84.377 154.2877
57.098527 84.357 154.0815
57.512287 84.337 153.9604
57.929045 84.317 153.8425
58.348822 84.298 153.7489
58.771642 84.279 153.6622
59.197525 84.262 153.5490
59.626495 84.246 153.4040
60.058573 84.229 153.2539
60.493782 84.212 153.0595
60.932145 84.194 152.8658
61.373685 84.176 152.6794
61.818424 84.156 152.4946
62.266386 84.136 152.3263
62.717593 84.116 152.1696
63.172071 84.096 152.0148
63.629842 84.077 151.8633
64.090930 84.058 151.7096
64.555359 84.040 151.5421
65.023154 84.021 151.3763
65.494339 84.003 151.1998
65.968938 83.984 151.0248
66.446976 83.965 150.8514
66.928478 83.945 150.6789
67.413469 83.925 150.5139
67.901975 83.905 150.3513
68.394021 83.884 150.2053
68.889632 83.864 150.0651
69.388835 83.844 149.9246
69.891655 83.824 149.7852
70.398118 83.805 149.6377
70.908252 83.787 149.4884
71.422083 83.768 149.3219
71.939636 83.750 149.1522
72.460941 83.732 148.9770
72.986023 83.713 148.8024
73.514909 83.693 148.6156
74.047629 83.674 148.4310
74.584208 83.654 148.2579
75.124676 83.634 148.0872
75.669061 83.613 147.9208
76.217390 83.592 147.7595
76.769692 83.571 147.6048
77.325997 83.551 147.4590
77.886333 83.530 147.3201
78.450730 83.510 147.1832
79.019216 83.490 147.0480
79.591822 83.471 146.9203
80.168577 83.452 146.7933
80.749512 83.434 146.6680
81.334656 83.417 146.5477
81.924040 83.401 146.4317
82.517696 83.385 146.3228
83.115653 83.369 146.2175
83.717943 83.353 146.1229
84.324598 83.336 146.0361
84.935649 83.318 145.9567
85.551128 83.298 145.8860
86.171066 83.277 145.8214
86.795497 83.255 145.7677
87.424453 83.230 145.7132
88.057967 83.204 145.6592
88.696071 83.176 145.5986
89.338800 83.145 145.5277
89.986185 83.114 145.4472
90.638262 83.081 145.3362
91.295065 83.049 145.2112
91.956626 83.016 145.0699
92.622982 82.984 144.9016
93.294166 82.952 144.7213
93.970214 82.922 144.5269
94.651161 82.893 144.3228
95.337042 82.865 144.1174
96.027894 82.839 143.9109
96.723752 82.814 143.7107
97.424652 82.790 143.5202
98.130631 82.767 143.3400
98.841726 82.745 143.1740
99.557974 82.722 143.0277
100.279412 82.700 142.8887
101.006078 82.676 142.7510
101.738010 82.652 142.6199
102.475245 82.627 142.4831
103.217823 82.602 142.3412
103.965782 82.576 142.1953
104.719161 82.549 142.0417
105.477999 82.523 141.8869
106.242336 82.496 141.7305
107.012212 82.469 141.5705
107.787666 82.443 141.4133
108.568740 82.417 141.2605
109.355474 82.391 141.1112
110.147909 82.365 140.9645
110.946086 82.339 140.8192
111.750047 82.313 140.6785
112.559834 82.287 140.5345
113.375489 82.260 140.3901
114.197055 82.233 140.2448
115.024574 82.206 140.0933
115.858089 82.178 139.9436
116.697645 82.151 139.7911
117.543284 82.124 139.6375
118.395051 82.097 139.4847
119.252990 82.071 139.3346
120.117147 82.044 139.1880
120.987565 82.017 139.0439
121.864291 81.989 138.9031
122.747370 81.961 138.7624
123.636848 81.933 138.6218
124.532771 81.905 138.4745
125.435187 81.876 138.3308
126.344142 81.847 138.1935
127.259684 81.818 138.0529
128.181860 81.790 137.9145
129.110718 81.761 137.7726
130.046308 81.733 137.6335
130.988677 81.705 137.4924
131.937875 81.677 137.3523
132.893951 81.649 137.2003
133.856956 81.621 137.0525
134.826938 81.592 136.9043
135.803950 81.564 136.7541
136.788041 81.535 136.6160
137.779264 81.506 136.4796
138.777669 81.478 136.3432
139.783309 81.449 136.2056
140.796237 81.421 136.0653
141.816504 81.393 135.9243
142.844165 81.364 135.7850
143.879273 81.336 135.6441
144.921881 81.308 135.5039
145.972045 81.279 135.3621
147.029819 81.250 135.2271
148.095257 81.221 135.0909
149.168417 81.191 134.9525
150.249353 81.161 134.8060
151.338121 81.131 134.6866
152.434780 81.101 134.5511
153.539385 81.070 134.4200
154.651995 81.040 134.2911
155.772667 81.010 134.1605
156.901460 80.979 134.0326
158.038432 80.949 133.9027
159.183644 80.918 133.7798
160.337154 80.888 133.6508
161.499023 80.857 133.5223
162.669312 80.827 133.3936
163.848081 80.796 133.2643
165.035392 80.765 133.1373
166.231306 80.734 133.0125
167.435887 80.703 132.8887
168.649196 80.671 132.7676
169.871298 80.639 132.6410
171.102255 80.607 132.5281
172.342133 80.575 132.4107
173.590995 80.543 132.2950
174.848907 80.510 132.1817
176.115934 80.478 132.0680
177.392143 80.445 131.9578
178.677599 80.411 131.8563
179.972371 80.377 131.7566
181.276525 80.343 131.6701
182.590129 80.308 131.5890
183.913252 80.274 131.5198
185.245964 80.239 131.4595
186.588332 80.204 131.4054
187.940428 80.170 131.3698
189.302322 80.136 131.3483
190.674085 80.104 131.3381
192.055788 80.075 131.3429
193.447503 80.048 131.3690
194.849303 80.025 131.4010
196.261262 80.008 131.4424
197.683452 79.996 131.4755
199.115948 79.990 131.5065
200.558824 79.988 131.5040
202.012156 79.989 131.4683
203.476019 79.993 131.3942
204.950490 79.996 131.2777
206.435646 79.998 131.1161
207.931564 79.997 130.9254
209.438322 79.993 130.7094
210.955998 79.985 130.4796
212.484672 79.972 130.2389
214.024424 79.955 130.0002
215.575333 79.935 129.7689
217.137481 79.912 129.5425
218.710948 79.887 129.3312
220.295818 79.861 129.1290
221.892172 79.833 128.9372
223.500094 79.805 128.7557
225.119668 79.776 128.5801
226.750978 79.747 128.4150
228.394109 79.718 128.2595
230.049147 79.689 128.1096
231.716178 79.659 127.9639
233.395289 79.631 127.8233
235.086567 79.602 127.6932
236.790102 79.574 127.5645
238.505980 79.546 127.4411
240.234293 79.519 127.3193
241.975130 79.491 127.1974
243.728581 79.464 127.0758
245.494739 79.438 126.9587
247.273695 79.411 126.8421
249.065542 79.385 126.7316
250.870374 79.359 126.6193
252.688284 79.333 126.5095
254.519367 79.308 126.4069
256.363720 79.283 126.2959
258.221437 79.259 126.1930
260.092616 79.235 126.0882
261.977354 79.211 125.9851
263.875750 79.187 125.8847
265.787903 79.163 125.7771
267.713911 79.140 125.6784
269.653877 79.116 125.5789
271.607900 79.093 125.4790
273.576083 79.070 125.3806
275.558528 79.048 125.2844
277.555338 79.026 125.1834
279.566619 79.004 125.0870
281.592474 78.982 124.9935
283.633009 78.960 124.9055
285.688331 78.939 124.8083
287.758546 78.918 124.7199
289.843763 78.897 124.6320
291.944090 78.876 124.5439
294.059638 78.856 124.4506
296.190515 78.836 124.3650
298.336833 78.816 124.2765
300.498705 78.797 124.1924
302.676243 78.778 124.1069
304.869559 78.759 124.0252
307.078770 78.740 123.9394
309.303989 78.721 123.8603
311.545334 78.703 123.7791
313.802919 78.685 123.7024
316.076865 78.667 123.6199
318.367288 78.649 123.5409
320.674309 78.632 123.4631
322.998047 78.615 123.3897
325.338624 78.599 123.3039
327.696162 78.582 123.2330
330.070783 78.566 123.1533
332.462612 78.550 123.0813
334.871773 78.534 123.0085
337.298392 78.518 122.9379
339.742595 78.502 122.8730
342.204510 78.486 122.8074
344.684265 78.470 122.7402
347.181989 78.455 122.6832
349.697813 78.439 122.6335
352.231868 78.423 122.5828
354.784285 78.407 122.5402
357.355198 78.391 122.5054
359.944741 78.376 122.4795
362.553049 78.361 122.4670
365.180258 78.347 122.4687
367.826505 78.335 122.4910
370.491927 78.326 122.5240
373.176665 78.320 122.5729
375.880856 78.318 122.6342
378.604644 78.321 122.6943
381.348169 78.329 122.7451
384.111575 78.342 122.7813
386.895006 78.359 122.7879
389.698607 78.378 122.7582
392.522524 78.399 122.6909
395.366904 78.417 122.5903
398.231895 78.434 122.4551
401.117648 78.447 122.3023
404.024312 78.457 122.1495
406.952038 78.464 121.9859
409.900981 78.469 121.8350
412.871292 78.471 121.6829
415.863128 78.472 121.5418
418.876643 78.472 121.4185
421.911996 78.472 121.2965
424.969344 78.472 121.1815
428.048847 78.472 121.0851
431.150666 78.473 120.9920
434.274961 78.474 120.8951
437.421897 78.475 120.8055
440.591636 78.477 120.7224
443.784345 78.480 120.6422
447.000189 78.484 120.5674
450.239337 78.488 120.4901
453.501956 78.493 120.4138
456.788219 78.498 120.3440
460.098294 78.504 120.2718
463.432356 78.511 120.1974
466.790578 78.519 120.1295
470.173135 78.528 120.0623
473.580203 78.537 120.0001
477.011961 78.547 119.9350
480.468586 78.558 119.8673
483.950259 78.569 119.8049
487.457163 78.582 119.7434
490.989478 78.594 119.6813
494.547390 78.608 119.6164
498.131084 78.622 119.5570
501.740748 78.637 119.4925
505.376568 78.653 119.4253
509.038735 78.669 119.3696
512.727439 78.686 119.3037
516.442874 78.704 119.2403
520.185232 78.723 119.1800
523.954708 78.742 119.1158
527.751500 78.762 119.0520
531.575805 78.783 118.9988
535.427822 78.805 118.9260
539.307753 78.827 118.8582
543.215800 78.851 118.8007
547.152165 78.875 118.7334
551.117055 78.900 118.6731
555.110677 78.925 118.6055
559.133237 78.952 118.5403
563.184947 78.979 118.4741
567.266018 79.007 118.4055
571.376661 79.036 118.3390
575.517092 79.066 118.2688
579.687526 79.097 118.2022
583.888181 79.129 118.1330
588.119275 79.161 118.0591
592.381030 79.194 117.9882
596.673667 79.229 117.9127
600.997410 79.264 117.8337
605.352485 79.300 117.7594
609.739119 79.337 117.6787
614.157540 79.375 117.5968
618.607979 79.413 117.5099
623.090667 79.453 117.4283
627.605839 79.494 117.3456
632.153730 79.535 117.2566
636.734576 79.577 117.1672
641.348617 79.621 117.0726
645.996094 79.665 116.9818
650.677248 79.710 116.8804
655.392323 79.756 116.7872
660.141566 79.803 116.6832
664.925224 79.851 116.5721
669.743546 79.900 116.4644
674.596784 79.950 116.3513
679.485191 80.001 116.2375
684.409020 80.053 116.1171
689.368530 80.106 116.0032
694.363979 80.159 115.8714
699.395626 80.214 115.7459
704.463736 80.270 115.6077
709.568570 80.327 115.4735
714.710396 80.384 115.3380
719.889483 80.443 115.1860
725.106099 80.502 115.0450
730.360516 80.563 114.8870
735.653010 80.624 114.7273
740.983855 80.686 114.5684
746.353329 80.749 114.3990
751.761713 80.813 114.2231
757.209288 80.878 114.0393
762.696339 80.944 113.8504
768.223151 81.011 113.6524
773.790013 81.079 113.4555
779.397214 81.147 113.2509
785.045047 81.216 113.0381
790.733808 81.287 112.8172
796.463791 81.357 112.5895
802.235296 81.429 112.3481
808.048623 81.501 112.0986
813.904077 81.574 111.8466
819.801961 81.648 111.5771
825.742584 81.722 111.3062
831.726255 81.796 111.0250
837.753287 81.872 110.7396
843.823992 81.947 110.4370
849.938689 82.023 110.1239
856.097695 82.100 109.8150
862.301332 82.177 109.4874
868.549922 82.254 109.1511
874.843793 82.332 108.8073
881.183272 82.410 108.4501
887.568689 82.488 108.0817
894.000378 82.566 107.6958
900.478673 82.644 107.3083
907.003913 82.722 106.8891
913.576437 82.799 106.4668
920.196588 82.876 106.0340
926.864712 82.952 105.5877
933.581156 83.026 105.1258
940.346270 83.099 104.6435
947.160407 83.171 104.1617
954.023921 83.241 103.6661
960.937172 83.309 103.1603
967.900519 83.376 102.6535
974.914325 83.440 102.1451
981.978956 83.502 101.6159
989.094780 83.563 101.0949
996.262169 83.621 100.5715
1003.481495 83.677 100.0365
1010.753136 83.732 99.5065
1018.077470 83.784 98.9796
1025.454879 83.834 98.4513
1032.885748 83.882 97.9273
1040.370463 83.928 97.4090
1047.909417 83.972 96.9040
1055.503000 84.014 96.4028
1063.151610 84.055 95.9109
1070.855645 84.095 95.4398
1078.615506 84.134 94.9622
1086.431599 84.173 94.5109
1094.304330 84.211 94.0625
1102.234110 84.250 93.6429
1110.221353 84.289 93.2145
1118.266475 84.328 92.7992
1126.369895 84.369 92.4040
1134.532035 84.411 92.0135
1142.753322 84.455 91.6301
1151.034184 84.501 91.2462
1159.375052 84.548 90.8563
1167.776361 84.598 90.4701
1176.238550 84.649 90.0707
1184.762060 84.702 89.6669
1193.347334 84.757 89.2607
1201.994821 84.812 88.8238
1210.704971 84.869 88.3802
1219.478238 84.925 87.9218
1228.315080 84.982 87.4533
1237.215957 85.038 86.9428
1246.181334 85.094 86.4283
1255.211678 85.148 85.8887
1264.307459 85.200 85.3366
1273.469152 85.250 84.7658
1282.697235 85.298 84.1815
1291.992188 85.343 83.5849
1301.354495 85.385 82.9748
1310.784647 85.424 82.3621
1320.283132 85.460 81.7334
1329.850448 85.492 81.1087
1339.487093 85.522 80.4826
1349.193569 85.548 79.8482
1358.970381 85.570 79.2252
1368.818041 85.590 78.6003
1378.737061 85.606 77.9630
1388.727958 85.620 77.3499
1398.791253 85.631 76.7393
1408.927471 85.639 76.1438
1419.137140 85.645 75.5625
1429.420793 85.648 74.9815
1439.778965 85.650 74.4219
1450.212197 85.649 73.8621
1460.721033 85.646 73.3312
1471.306019 85.642 72.7983
1481.967709 85.636 72.2815
1492.706658 85.629 71.7880
1503.523426 85.621 71.3104
1514.418576 85.612 70.8414
1525.392678 85.602 70.3881
1536.446302 85.591 69.9459
1547.580025 85.580 69.5206
1558.794428 85.569 69.1073
1570.090095 85.557 68.7155
1581.467615 85.545 68.3270
1592.927581 85.533 67.9574
1604.470591 85.521 67.6003
1616.097246 85.509 67.2553
1627.808153 85.498 66.9286
1639.603922 85.486 66.6105
1651.485168 85.476 66.3055
1663.452510 85.466 66.0111
1675.506573 85.456 65.7244
1687.647984 85.447 65.4549
1699.877377 85.439 65.1807
1712.195390 85.431 64.9309
1724.602663 85.425 64.6825
1737.099845 85.419 64.4439
1749.687587 85.414 64.2151
1762.366544 85.411 63.9907
1775.137379 85.408 63.7720
1788.000756 85.407 63.5629
1800.957346 85.406 63.3572
1814.007826 85.407 63.1642
1827.152874 85.409 62.9683
1840.393177 85.413 62.7779
1853.729425 85.418 62.5996
1867.162312 85.424 62.4079
1880.692540 85.431 62.2423
1894.320813 85.440 62.0594
1908.047843 85.451 61.8970
1921.874344 85.462 61.7302
1935.801038 85.475 61.5645
1949.828650 85.490 61.3899
1963.957912 85.505 61.2337
1978.189561 85.523 61.0644
1992.524338 85.541 60.9009
2006.962991 85.561 60.7264
2021.506272 85.582 60.5647
2036.154940 85.605 60.3915
2050.909758 85.629 60.2175
2065.771495 85.654 60.0464
2080.740927 85.681 59.8570
2095.818833 85.709 59.6751
2111.006001 85.739 59.4722
2126.303220 85.770 59.2820
2141.711290 85.802 59.0796
2157.231013 85.835 58.8784
2172.863198 85.870 58.6550
2188.608660 85.906 58.4276
2204.468221 85.942 58.1897
2220.442706 85.980 57.9403
2236.532950 86.019 57.6953
2252.739789 86.059 57.4226
2269.064070 86.100 57.1454
2285.506644 86.141 56.8574
2302.068367 86.183 56.5543
2318.750104 86.226 56.2520
2335.552723 86.270 55.9194
2352.477101 86.314 55.5859
2369.524119 86.358 55.2336
2386.694668 86.403 54.8598
2403.989641 86.448 54.4849
2421.409941 86.493 54.0886
2438.956476 86.538 53.6708
2456.630160 86.583 53.2514
2474.431915 86.628 52.8041
2492.362668 86.673 52.3405
2510.423356 86.718 51.8639
2528.614918 86.762 51.3766
2546.938304 86.805 50.8685
2565.394469 86.847 50.3300
2583.984375 86.889 49.7819
2602.708991 86.929 49.2105
2621.569293 86.968 48.6377
2640.566265 87.006 48.0339
2659.700897 87.042 47.4228
2678.974186 87.077 46.7989
2698.387137 87.110 46.1472
2717.940763 87.141 45.4886
2737.636082 87.170 44.8082
2757.474121 87.198 44.1166
2777.455915 87.223 43.4010
2797.582506 87.247 42.6876
2817.854942 87.268 41.9433
2838.274281 87.287 41.1806
2858.841586 87.304 40.4210
2879.557931 87.319 39.6435
2900.424394 87.332 38.8475
2921.442065 87.341 38.0402
2942.612039 87.348 37.2100
2963.935418 87.351 36.3643
2985.413316 87.352 35.5223
3007.046852 87.348 34.6612
3028.837153 87.341 33.7751
3050.785356 87.331 32.8991
3072.892604 87.316 31.9998
3095.160050 87.297 31.1097
3117.588856 87.273 30.2101
3140.180190 87.246 29.3207
3162.935230 87.214 28.4031
3185.855163 87.178 27.5245
3208.941182 87.139 26.6180
3232.194493 87.096 25.7421
3255.616307 87.049 24.8698
3279.207844 87.000 24.0056
3302.970336 86.948 23.1432
3326.905021 86.894 22.3031
3351.013146 86.838 21.4702
3375.295969 86.782 20.6533
3399.754755 86.725 19.8314
3424.390779 86.668 19.0018
3449.205326 86.610 18.1584
3474.199690 86.551 17.3173
3499.375173 86.489 16.4573
3524.733088 86.424 15.5953
3550.274757 86.356 14.7076
3576.001511 86.283 13.8272
3601.914692 86.206 12.9221
3628.015651 86.123 12.0341
3654.305748 86.036 11.1531
3680.786354 85.944 10.2810
3707.458849 85.848 9.4204
3734.324624 85.748 8.5634
3761.385080 85.645 7.7345
3788.641627 85.539 6.9140
3816.095686 85.430 6.1051
3843.748688 85.319 5.3146
3871.602076 85.205 4.5381
