* Measurement data measured by REW V5.20.9
* Source: Input device not selected, no input selected, L, volume: no control. Timing signal peak level -47,3 dBFS, measurement signal peak level -17,6 dBFS
* Format: 256k Log Swept Sine, 1 sweep at -12,0 dBFS using an acoustic timing reference
* Dated: 25.03.2023 22:34:39
* REW Settings:
*  C-weighting compensation: Off
*  Target level: 75.0 dB
* Note: Delay -0,0038 ms (-1,3 mm, -0,05 in) using estimated IR delay relative to Acoustic reference on  L with no timing offset
* Measurement: TRN Rosefinch
* Smoothing: 1/12 octave
* Frequency Step: 96 ppo
* Start Frequency: 20.187378 Hz
*
* Freq(Hz) SPL(dB) Phase(degrees)
20.187378 96.651 -67.6994
20.333664 96.681 -67.8715
20.481010 96.726 -68.1366
20.629424 96.783 -68.4843
20.778913 96.848 -68.9052
20.929486 96.918 -69.3906
21.081150 96.992 -69.9304
21.233912 97.067 -70.5119
21.387782 97.141 -71.1191
21.542767 97.214 -71.7329
21.698874 97.285 -72.3326
21.856113 97.355 -72.8975
22.014492 97.425 -73.4095
22.174018 97.496 -73.8559
22.334700 97.571 -74.2305
22.496546 97.650 -74.5359
22.659566 97.735 -74.7832
22.823766 97.828 -74.9907
22.989157 97.926 -75.1823
23.155745 98.028 -75.3833
23.323542 98.132 -75.6176
23.492554 98.234 -75.9040
23.662790 98.332 -76.2542
23.834261 98.421 -76.6715
24.006973 98.500 -77.1512
24.180938 98.568 -77.6818
24.356163 98.625 -78.2473
24.532658 98.674 -78.8299
24.710431 98.717 -79.4126
24.889493 98.759 -79.9816
25.069853 98.803 -80.5280
25.251519 98.854 -81.0481
25.434502 98.914 -81.5436
25.618811 98.985 -82.0190
25.804456 99.066 -82.4805
25.991445 99.156 -82.9331
26.179790 99.251 -83.3795
26.369500 99.350 -83.8198
26.560584 99.448 -84.2521
26.753053 99.544 -84.6741
26.946917 99.636 -85.0853
27.142185 99.723 -85.4888
27.338869 99.804 -85.8920
27.536977 99.881 -86.3064
27.736522 99.953 -86.7459
27.937512 100.020 -87.2238
28.139959 100.083 -87.7499
28.343872 100.142 -88.3274
28.549264 100.196 -88.9512
28.756143 100.247 -89.6073
28.964522 100.295 -90.2746
29.174411 100.343 -90.9281
29.385821 100.393 -91.5431
29.598763 100.448 -92.0992
29.813248 100.510 -92.5844
30.029287 100.580 -92.9969
30.246891 100.658 -93.3451
30.466073 100.742 -93.6451
30.686842 100.828 -93.9170
30.909212 100.913 -94.1813
31.133193 100.991 -94.4558
31.358797 101.061 -94.7535
31.586035 101.120 -95.0826
31.814921 101.169 -95.4480
32.045465 101.208 -95.8524
32.277680 101.244 -96.2978
32.511577 101.279 -96.7862
32.747169 101.319 -97.3187
32.984469 101.368 -97.8936
33.223488 101.428 -98.5043
33.464239 101.499 -99.1380
33.706735 101.579 -99.7748
33.950987 101.665 -100.3903
34.197010 101.753 -100.9582
34.444816 101.839 -101.4560
34.694417 101.919 -101.8690
34.945827 101.990 -102.1945
35.199059 102.051 -102.4432
35.454126 102.102 -102.6382
35.711041 102.143 -102.8115
35.969818 102.175 -102.9982
36.230470 102.201 -103.2304
36.493011 102.222 -103.5319
36.757455 102.242 -103.9149
37.023814 102.266 -104.3792
37.292104 102.297 -104.9141
37.562338 102.339 -105.5015
37.834530 102.393 -106.1188
38.108695 102.458 -106.7425
38.384846 102.532 -107.3497
38.662999 102.610 -107.9208
38.943167 102.689 -108.4418
39.225365 102.764 -108.9084
39.509608 102.834 -109.3286
39.795911 102.899 -109.7238
40.084289 102.958 -110.1260
40.374756 103.010 -110.5703
40.667328 103.056 -111.0842
40.962020 103.093 -111.6770
41.258848 103.120 -112.3340
41.557827 103.138 -113.0185
41.858972 103.149 -113.6812
42.162299 103.158 -114.2740
42.467824 103.173 -114.7647
42.775564 103.198 -115.1461
43.085533 103.238 -115.4367
43.397749 103.294 -115.6728
43.712227 103.360 -115.8947
44.028983 103.432 -116.1352
44.348036 103.503 -116.4132
44.669400 103.568 -116.7346
44.993093 103.624 -117.0967
45.319131 103.669 -117.4941
45.647532 103.704 -117.9223
45.978313 103.731 -118.3791
46.311491 103.754 -118.8642
46.647083 103.775 -119.3781
46.985107 103.799 -119.9204
47.325581 103.829 -120.4878
47.668521 103.865 -121.0720
48.013947 103.908 -121.6584
48.361876 103.954 -122.2273
48.712326 104.003 -122.7572
49.065315 104.050 -123.2304
49.420863 104.093 -123.6387
49.778987 104.131 -123.9861
50.139706 104.164 -124.2883
50.503039 104.191 -124.5687
50.869005 104.214 -124.8522
51.237623 104.234 -125.1603
51.608912 104.253 -125.5064
51.982891 104.273 -125.8954
52.359580 104.295 -126.3238
52.739000 104.318 -126.7816
53.121168 104.344 -127.2558
53.506106 104.372 -127.7342
53.893833 104.401 -128.2079
54.284370 104.431 -128.6731
54.677737 104.462 -129.1308
55.073955 104.495 -129.5834
55.473043 104.530 -130.0326
55.875024 104.566 -130.4777
56.279917 104.602 -130.9164
56.687745 104.638 -131.3479
57.098527 104.673 -131.7742
57.512287 104.707 -132.1999
57.929045 104.738 -132.6291
58.348822 104.765 -133.0627
58.771642 104.790 -133.4974
59.197525 104.813 -133.9285
59.626495 104.836 -134.3538
60.058573 104.860 -134.7757
60.493782 104.886 -135.1997
60.932145 104.912 -135.6305
61.373685 104.937 -136.0692
61.818424 104.960 -136.5123
62.266386 104.982 -136.9546
62.717593 105.003 -137.3920
63.172071 105.024 -137.8226
63.629842 105.046 -138.2462
64.090930 105.069 -138.6635
64.555359 105.092 -139.0744
65.023154 105.115 -139.4792
65.494339 105.137 -139.8788
65.968938 105.158 -140.2763
66.446976 105.177 -140.6759
66.928478 105.194 -141.0817
67.413469 105.210 -141.4962
67.901975 105.226 -141.9186
68.394021 105.241 -142.3460
68.889632 105.256 -142.7742
69.388835 105.272 -143.1998
69.891655 105.287 -143.6199
70.398118 105.303 -144.0339
70.908252 105.318 -144.4429
71.422083 105.334 -144.8505
71.939636 105.349 -145.2604
72.460941 105.364 -145.6742
72.986023 105.378 -146.0898
73.514909 105.392 -146.5031
74.047629 105.406 -146.9106
74.584208 105.420 -147.3123
75.124676 105.434 -147.7110
75.669061 105.448 -148.1101
76.217390 105.463 -148.5122
76.769692 105.477 -148.9173
77.325997 105.491 -149.3235
77.886333 105.504 -149.7274
78.450730 105.515 -150.1264
79.019216 105.524 -150.5191
79.591822 105.532 -150.9057
80.168577 105.539 -151.2872
80.749512 105.545 -151.6667
81.334656 105.551 -152.0490
81.924040 105.557 -152.4395
82.517696 105.564 -152.8408
83.115653 105.573 -153.2492
83.717943 105.585 -153.6543
84.324598 105.598 -154.0424
84.935649 105.611 -154.4039
85.551128 105.621 -154.7395
86.171066 105.625 -155.0605
86.795497 105.622 -155.3845
87.424453 105.614 -155.7282
88.057967 105.605 -156.1016
88.696071 105.596 -156.5053
89.338800 105.591 -156.9304
89.986185 105.590 -157.3618
90.638262 105.591 -157.7846
91.295065 105.595 -158.1887
91.956626 105.600 -158.5709
92.622982 105.608 -158.9329
93.294166 105.617 -159.2812
93.970214 105.627 -159.6252
94.651161 105.638 -159.9744
95.337042 105.647 -160.3345
96.027894 105.654 -160.7053
96.723752 105.657 -161.0825
97.424652 105.658 -161.4619
98.130631 105.658 -161.8414
98.841726 105.657 -162.2208
99.557974 105.656 -162.5979
100.279412 105.655 -162.9675
101.006078 105.653 -163.3252
101.738010 105.651 -163.6729
102.475245 105.649 -164.0164
103.217823 105.647 -164.3595
103.965782 105.644 -164.7024
104.719161 105.641 -165.0447
105.477999 105.637 -165.3872
106.242336 105.633 -165.7317
107.012212 105.629 -166.0789
107.787666 105.624 -166.4288
108.568740 105.619 -166.7803
109.355474 105.614 -167.1318
110.147909 105.608 -167.4816
110.946086 105.602 -167.8279
111.750047 105.597 -168.1686
112.559834 105.591 -168.5021
113.375489 105.585 -168.8271
114.197055 105.577 -169.1440
115.024574 105.568 -169.4550
115.858089 105.558 -169.7641
116.697645 105.549 -170.0755
117.543284 105.539 -170.3922
118.395051 105.529 -170.7138
119.252990 105.520 -171.0383
120.117147 105.510 -171.3642
120.987565 105.500 -171.6927
121.864291 105.490 -172.0249
122.747370 105.479 -172.3607
123.636848 105.469 -172.6981
124.532771 105.458 -173.0343
125.435187 105.448 -173.3677
126.344142 105.437 -173.6980
127.259684 105.426 -174.0262
128.181860 105.415 -174.3525
129.110718 105.404 -174.6749
130.046308 105.393 -174.9898
130.988677 105.380 -175.2949
131.937875 105.366 -175.5902
132.893951 105.352 -175.8782
133.856956 105.337 -176.1624
134.826938 105.321 -176.4463
135.803950 105.306 -176.7314
136.788041 105.291 -177.0183
137.779264 105.275 -177.3070
138.777669 105.260 -177.5972
139.783309 105.244 -177.8881
140.796237 105.228 -178.1786
141.816504 105.212 -178.4678
142.844165 105.196 -178.7555
143.879273 105.180 -179.0425
144.921881 105.163 -179.3292
145.972045 105.146 -179.6152
147.029819 105.128 -179.8999
148.095257 105.109 179.8173
149.168417 105.090 179.5371
150.249353 105.070 179.2607
151.338121 105.051 178.9885
152.434780 105.031 178.7195
153.539385 105.010 178.4528
154.651995 104.989 178.1880
155.772667 104.968 177.9250
156.901460 104.946 177.6635
158.038432 104.925 177.4026
159.183644 104.903 177.1420
160.337154 104.882 176.8817
161.499023 104.860 176.6226
162.669312 104.838 176.3666
163.848081 104.816 176.1155
165.035392 104.794 175.8697
166.231306 104.771 175.6281
167.435887 104.748 175.3891
168.649196 104.724 175.1521
169.871298 104.701 174.9165
171.102255 104.677 174.6817
172.342133 104.652 174.4467
173.590995 104.627 174.2106
174.848907 104.602 173.9730
176.115934 104.577 173.7346
177.392143 104.551 173.4968
178.677599 104.525 173.2616
179.972371 104.499 173.0301
181.276525 104.473 172.8024
182.590129 104.446 172.5780
183.913252 104.420 172.3565
185.245964 104.392 172.1375
186.588332 104.364 171.9205
187.940428 104.336 171.7054
189.302322 104.307 171.4915
190.674085 104.279 171.2775
192.055788 104.251 171.0613
193.447503 104.225 170.8397
194.849303 104.200 170.6097
196.261262 104.176 170.3719
197.683452 104.153 170.1321
199.115948 104.127 169.9023
200.558824 104.098 169.6948
202.012156 104.064 169.5135
203.476019 104.029 169.3503
204.950490 103.994 169.1930
206.435646 103.960 169.0331
207.931564 103.927 168.8675
209.438322 103.894 168.6973
210.955998 103.862 168.5247
212.484672 103.831 168.3523
214.024424 103.799 168.1819
215.575333 103.767 168.0148
217.137481 103.735 167.8511
218.710948 103.702 167.6898
220.295818 103.669 167.5302
221.892172 103.636 167.3717
223.500094 103.602 167.2139
225.119668 103.567 167.0562
226.750978 103.532 166.8982
228.394109 103.498 166.7407
230.049147 103.463 166.5850
231.716178 103.429 166.4324
233.395289 103.394 166.2836
235.086567 103.359 166.1386
236.790102 103.324 165.9976
238.505980 103.287 165.8601
240.234293 103.250 165.7253
241.975130 103.213 165.5925
243.728581 103.176 165.4626
245.494739 103.138 165.3361
247.273695 103.100 165.2132
249.065542 103.062 165.0928
250.870374 103.023 164.9745
252.688284 102.983 164.8592
254.519367 102.943 164.7486
256.363720 102.902 164.6443
258.221437 102.861 164.5478
260.092616 102.819 164.4597
261.977354 102.777 164.3791
263.875750 102.735 164.3044
265.787903 102.692 164.2354
267.713911 102.649 164.1736
269.653877 102.605 164.1212
271.607900 102.560 164.0806
273.576083 102.515 164.0532
275.558528 102.470 164.0398
277.555338 102.425 164.0411
279.566619 102.380 164.0574
281.592474 102.337 164.0896
283.633009 102.294 164.1393
285.688331 102.254 164.2079
287.758546 102.216 164.2951
289.843763 102.182 164.3986
291.944090 102.153 164.5143
294.059638 102.129 164.6356
296.190515 102.111 164.7533
298.336833 102.098 164.8564
300.498705 102.091 164.9344
302.676243 102.088 164.9787
304.869559 102.086 164.9819
307.078770 102.085 164.9391
309.303989 102.081 164.8505
311.545334 102.075 164.7235
313.802919 102.063 164.5701
316.076865 102.048 164.4022
318.367288 102.028 164.2295
320.674309 102.003 164.0591
322.998047 101.975 163.8951
325.338624 101.944 163.7396
327.696162 101.911 163.5935
330.070783 101.876 163.4581
332.462612 101.839 163.3342
334.871773 101.801 163.2221
337.298392 101.762 163.1219
339.742595 101.722 163.0328
342.204510 101.682 162.9537
344.684265 101.641 162.8832
347.181989 101.599 162.8207
349.697813 101.557 162.7661
352.231868 101.516 162.7200
354.784285 101.474 162.6823
357.355198 101.432 162.6522
359.944741 101.390 162.6283
362.553049 101.348 162.6100
365.180258 101.307 162.5968
367.826505 101.266 162.5884
370.491927 101.224 162.5845
373.176665 101.183 162.5846
375.880856 101.142 162.5885
378.604644 101.101 162.5966
381.348169 101.060 162.6097
384.111575 101.019 162.6280
386.895006 100.979 162.6510
389.698607 100.938 162.6785
392.522524 100.897 162.7107
395.366904 100.856 162.7474
398.231895 100.815 162.7876
401.117648 100.774 162.8297
404.024312 100.733 162.8723
406.952038 100.692 162.9155
409.900981 100.652 162.9604
412.871292 100.612 163.0082
415.863128 100.571 163.0596
418.876643 100.531 163.1147
421.911996 100.492 163.1736
424.969344 100.452 163.2361
428.048847 100.412 163.3019
431.150666 100.372 163.3710
434.274961 100.332 163.4435
437.421897 100.292 163.5193
440.591636 100.252 163.5980
443.784345 100.212 163.6796
447.000189 100.172 163.7641
450.239337 100.132 163.8521
453.501956 100.093 163.9438
456.788219 100.053 164.0388
460.098294 100.014 164.1368
463.432356 99.974 164.2382
466.790578 99.935 164.3431
470.173135 99.896 164.4515
473.580203 99.857 164.5632
477.011961 99.818 164.6777
480.468586 99.780 164.7951
483.950259 99.742 164.9157
487.457163 99.703 165.0399
490.989478 99.665 165.1682
494.547390 99.627 165.3008
498.131084 99.589 165.4378
501.740748 99.550 165.5784
505.376568 99.511 165.7218
509.038735 99.472 165.8678
512.727439 99.434 166.0164
516.442874 99.395 166.1677
520.185232 99.357 166.3222
523.954708 99.319 166.4802
527.751500 99.281 166.6418
531.575805 99.244 166.8072
535.427822 99.206 166.9765
539.307753 99.169 167.1499
543.215800 99.132 167.3278
547.152165 99.095 167.5104
551.117055 99.058 167.6984
555.110677 99.022 167.8920
559.133237 98.985 168.0906
563.184947 98.948 168.2933
567.266018 98.912 168.4995
571.376661 98.876 168.7085
575.517092 98.840 168.9200
579.687526 98.805 169.1339
583.888181 98.770 169.3503
588.119275 98.735 169.5705
592.381030 98.701 169.7952
596.673667 98.667 170.0247
600.997410 98.632 170.2593
605.352485 98.598 170.4996
609.739119 98.564 170.7455
614.157540 98.531 170.9968
618.607979 98.497 171.2529
623.090667 98.463 171.5130
627.605839 98.429 171.7770
632.153730 98.396 172.0451
636.734576 98.363 172.3179
641.348617 98.330 172.5957
645.996094 98.298 172.8776
650.677248 98.265 173.1627
655.392323 98.234 173.4499
660.141566 98.203 173.7396
664.925224 98.172 174.0328
669.743546 98.142 174.3310
674.596784 98.112 174.6354
679.485191 98.082 174.9468
684.409020 98.053 175.2652
689.368530 98.024 175.5898
694.363979 97.995 175.9197
699.395626 97.967 176.2547
704.463736 97.940 176.5946
709.568570 97.914 176.9396
714.710396 97.888 177.2899
719.889483 97.864 177.6459
725.106099 97.840 178.0082
730.360516 97.817 178.3767
735.653010 97.795 178.7508
740.983855 97.773 179.1295
746.353329 97.753 179.5122
751.761713 97.732 179.8992
757.209288 97.713 -179.7095
762.696339 97.693 -179.3136
768.223151 97.675 -178.9131
773.790013 97.657 -178.5075
779.397214 97.640 -178.0962
785.045047 97.624 -177.6791
790.733808 97.610 -177.2565
796.463791 97.596 -176.8293
802.235296 97.584 -176.3979
808.048623 97.573 -175.9624
813.904077 97.563 -175.5224
819.801961 97.553 -175.0771
825.742584 97.546 -174.6258
831.726255 97.539 -174.1680
837.753287 97.534 -173.7047
843.823992 97.530 -173.2373
849.938689 97.527 -172.7661
856.097695 97.526 -172.2907
862.301332 97.526 -171.8105
868.549922 97.528 -171.3263
874.843793 97.531 -170.8392
881.183272 97.536 -170.3498
887.568689 97.543 -169.8587
894.000378 97.552 -169.3665
900.478673 97.563 -168.8739
907.003913 97.575 -168.3818
913.576437 97.588 -167.8903
920.196588 97.604 -167.3989
926.864712 97.621 -166.9073
933.581156 97.640 -166.4158
940.346270 97.661 -165.9252
947.160407 97.684 -165.4368
954.023921 97.709 -164.9509
960.937172 97.736 -164.4678
967.900519 97.765 -163.9875
974.914325 97.796 -163.5107
981.978956 97.830 -163.0383
989.094780 97.865 -162.5714
996.262169 97.901 -162.1109
1003.481495 97.940 -161.6578
1010.753136 97.980 -161.2138
1018.077470 98.022 -160.7799
1025.454879 98.065 -160.3561
1032.885748 98.109 -159.9419
1040.370463 98.155 -159.5362
1047.909417 98.202 -159.1385
1055.503000 98.250 -158.7491
1063.151610 98.299 -158.3690
1070.855645 98.350 -157.9998
1078.615506 98.402 -157.6426
1086.431599 98.455 -157.2984
1094.304330 98.509 -156.9672
1102.234110 98.564 -156.6487
1110.221353 98.620 -156.3427
1118.266475 98.676 -156.0490
1126.369895 98.733 -155.7678
1134.532035 98.790 -155.4989
1142.753322 98.846 -155.2421
1151.034184 98.903 -154.9967
1159.375052 98.959 -154.7623
1167.776361 99.015 -154.5391
1176.238550 99.071 -154.3273
1184.762060 99.127 -154.1265
1193.347334 99.183 -153.9364
1201.994821 99.238 -153.7560
1210.704971 99.292 -153.5845
1219.478238 99.346 -153.4216
1228.315080 99.398 -153.2674
1237.215957 99.450 -153.1221
1246.181334 99.500 -152.9852
1255.211678 99.550 -152.8557
1264.307459 99.599 -152.7316
1273.469152 99.647 -152.6114
1282.697235 99.694 -152.4945
1291.992188 99.740 -152.3809
1301.354495 99.785 -152.2711
1310.784647 99.829 -152.1655
1320.283132 99.873 -152.0639
1329.850448 99.916 -151.9653
1339.487093 99.958 -151.8682
1349.193569 99.999 -151.7716
1358.970381 100.039 -151.6748
1368.818041 100.078 -151.5776
1378.737061 100.116 -151.4801
1388.727958 100.154 -151.3821
1398.791253 100.190 -151.2834
1408.927471 100.226 -151.1835
1419.137140 100.262 -151.0822
1429.420793 100.297 -150.9789
1439.778965 100.331 -150.8736
1450.212197 100.366 -150.7662
1460.721033 100.399 -150.6568
1471.306019 100.433 -150.5452
1481.967709 100.466 -150.4306
1492.706658 100.498 -150.3127
1503.523426 100.531 -150.1908
1514.418576 100.563 -150.0645
1525.392678 100.595 -149.9335
1536.446302 100.627 -149.7979
1547.580025 100.659 -149.6577
1558.794428 100.692 -149.5131
1570.090095 100.724 -149.3644
1581.467615 100.757 -149.2123
1592.927581 100.791 -149.0570
1604.470591 100.824 -148.8987
1616.097246 100.858 -148.7373
1627.808153 100.892 -148.5729
1639.603922 100.927 -148.4055
1651.485168 100.962 -148.2353
1663.452510 100.998 -148.0624
1675.506573 101.034 -147.8870
1687.647984 101.071 -147.7095
1699.877377 101.108 -147.5298
1712.195390 101.146 -147.3482
1724.602663 101.185 -147.1645
1737.099845 101.224 -146.9787
1749.687587 101.264 -146.7908
1762.366544 101.305 -146.6008
1775.137379 101.346 -146.4087
1788.000756 101.389 -146.2146
1800.957346 101.432 -146.0185
1814.007826 101.476 -145.8205
1827.152874 101.522 -145.6209
1840.393177 101.568 -145.4205
1853.729425 101.615 -145.2198
1867.162312 101.664 -145.0192
1880.692540 101.713 -144.8187
1894.320813 101.764 -144.6185
1908.047843 101.815 -144.4184
1921.874344 101.868 -144.2188
1935.801038 101.922 -144.0196
1949.828650 101.978 -143.8208
1963.957912 102.034 -143.6229
1978.189561 102.092 -143.4261
1992.524338 102.152 -143.2310
2006.962991 102.213 -143.0381
2021.506272 102.276 -142.8480
2036.154940 102.340 -142.6611
2050.909758 102.405 -142.4778
2065.771495 102.473 -142.2985
2080.740927 102.541 -142.1238
2095.818833 102.612 -141.9545
2111.006001 102.683 -141.7912
2126.303220 102.757 -141.6348
2141.711290 102.832 -141.4858
2157.231013 102.908 -141.3448
2172.863198 102.987 -141.2125
2188.608660 103.067 -141.0894
2204.468221 103.149 -140.9760
2220.442706 103.232 -140.8732
2236.532950 103.316 -140.7815
2252.739789 103.402 -140.7018
2269.064070 103.490 -140.6351
2285.506644 103.579 -140.5820
2302.068367 103.669 -140.5429
2318.750104 103.760 -140.5183
2335.552723 103.852 -140.5087
2352.477101 103.945 -140.5146
2369.524119 104.039 -140.5368
2386.694668 104.134 -140.5759
2403.989641 104.230 -140.6325
2421.409941 104.327 -140.7072
2438.956476 104.424 -140.8008
2456.630160 104.521 -140.9139
2474.431915 104.618 -141.0466
2492.362668 104.715 -141.1993
2510.423356 104.812 -141.3721
2528.614918 104.909 -141.5650
2546.938304 105.005 -141.7784
2565.394469 105.101 -142.0124
2583.984375 105.197 -142.2673
2602.708991 105.291 -142.5431
2621.569293 105.385 -142.8401
2640.566265 105.478 -143.1581
2659.700897 105.569 -143.4968
2678.974186 105.659 -143.8561
2698.387137 105.747 -144.2360
2717.940763 105.833 -144.6364
2737.636082 105.917 -145.0573
2757.474121 105.999 -145.4983
2777.455915 106.079 -145.9588
2797.582506 106.156 -146.4379
2817.854942 106.230 -146.9349
2838.274281 106.302 -147.4489
